Time (s)	100nM	[G-act]	[A208W]	[G-act] (t)															
15.04	8.52734E-10	0.000002	0.0000001	1.99915E-06															
25.01	3.44284E-09	0.000002	0.0000001	1.99656E-06															
35.02	0	0.000002	0.0000001	0.000002															
45.01	3.5255E-09	0.000002	0.0000001	1.99647E-06															
55.02	5.91258E-09	0.000002	0.0000001	1.99409E-06															
65.02	4.45365E-09	0.000002	0.0000001	1.99555E-06															
75.02	8.67236E-09	0.000002	0.0000001	1.99133E-06															
85.02	1.7352E-08	0.000002	0.0000001	1.98265E-06															
95.01	1.77145E-08	0.000002	0.0000001	1.98229E-06															
105.01	2.52847E-08	0.000002	0.0000001	1.97472E-06															
115.01	2.48961E-08	0.000002	0.0000001	1.9751E-06															
125.02	3.0565E-08	0.000002	0.0000001	1.96943E-06															
135.03	3.98218E-08	0.000002	0.0000001	1.96018E-06															
145.02	4.64856E-08	0.000002	0.0000001	1.95351E-06															
155.01	5.25606E-08	0.000002	0.0000001	1.94744E-06															
165.02	6.28152E-08	0.000002	0.0000001	1.93718E-06															
175.01	7.20502E-08	0.000002	0.0000001	1.92795E-06															
185.01	7.83993E-08	0.000002	0.0000001	1.9216E-06															
195.02	8.79882E-08	0.000002	0.0000001	1.91201E-06															
205	1.01129E-07	0.000002	0.0000001	1.89887E-06															
215.02	1.14285E-07	0.000002	0.0000001	1.88571E-06															
225.01	1.23588E-07	0.000002	0.0000001	1.87641E-06															
235.01	1.30142E-07	0.000002	0.0000001	1.86986E-06															
245.01	1.44317E-07	0.000002	0.0000001	1.85568E-06															
255.01	1.61193E-07	0.000002	0.0000001	1.83881E-06															
265.01	1.71988E-07	0.000002	0.0000001	1.82801E-06															
275.01	1.89755E-07	0.000002	0.0000001	1.81024E-06															
285.02	1.98655E-07	0.000002	0.0000001	1.80134E-06															
295.01	2.19934E-07	0.000002	0.0000001	1.78007E-06															
305.02	2.41769E-07	0.000002	0.0000001	1.75823E-06															
315.02	2.5217E-07	0.000002	0.0000001	1.74783E-06															
325.02	2.72638E-07	0.000002	0.0000001	1.72736E-06															
335.02	2.81847E-07	0.000002	0.0000001	1.71815E-06															
345.01	3.06571E-07	0.000002	0.0000001	1.69343E-06															
355.01	3.28897E-07	0.000002	0.0000001	1.6711E-06															
365.02	3.49006E-07	0.000002	0.0000001	1.65099E-06															
375.02	3.68501E-07	0.000002	0.0000001	1.6315E-06															
385.02	3.90005E-07	0.000002	0.0000001	1.60999E-06															
395.02	4.13731E-07	0.000002	0.0000001	1.58627E-06															
405.01	4.38761E-07	0.000002	0.0000001	1.56124E-06															
415.02	4.57543E-07	0.000002	0.0000001	1.54246E-06															
425.02	4.85265E-07	0.000002	0.0000001	1.51473E-06															
435.02	5.0502E-07	0.000002	0.0000001	1.49498E-06															
445.02	5.29731E-07	0.000002	0.0000001	1.47027E-06															
455.02	5.64184E-07	0.000002	0.0000001	1.43582E-06															
465.02	5.86478E-07	0.000002	0.0000001	1.41352E-06															
475.01	6.09843E-07	0.000002	0.0000001	1.39016E-06															
485.01	6.38895E-07	0.000002	0.0000001	1.36111E-06															
495.02	6.68033E-07	0.000002	0.0000001	1.33197E-06															
505.01	6.97926E-07	0.000002	0.0000001	1.30207E-06															
515.02	7.23964E-07	0.000002	0.0000001	1.27604E-06															
525.01	7.56249E-07	0.000002	0.0000001	1.24375E-06															
535.02	7.82853E-07	0.000002	0.0000001	1.21715E-06															
545.01	8.13837E-07	0.000002	0.0000001	1.18616E-06															
555.02	8.53342E-07	0.000002	0.0000001	1.14666E-06															
565.01	8.82453E-07	0.000002	0.0000001	1.11755E-06															
575.02	9.09228E-07	0.000002	0.0000001	1.09077E-06															
585.01	9.4783E-07	0.000002	0.0000001	1.05217E-06															
595.02	9.70777E-07	0.000002	0.0000001	1.02922E-06															
605.02	1.00257E-06	0.000002	0.0000001	9.97433E-07															
615.03	1.02834E-06	0.000002	0.0000001	9.71659E-07															
625.02	1.05332E-06	0.000002	0.0000001	9.46684E-07															
635.01	1.08827E-06	0.000002	0.0000001	9.11727E-07															
645.01	1.1204E-06	0.000002	0.0000001	8.79602E-07															
655.02	1.14161E-06	0.000002	0.0000001	8.58394E-07															
665.02	1.17993E-06	0.000002	0.0000001	8.20066E-07															
675.01	1.20682E-06	0.000002	0.0000001	7.93177E-07															
685.02	1.23794E-06	0.000002	0.0000001	7.62059E-07															
695.01	1.26723E-06	0.000002	0.0000001	7.32768E-07															
705.02	1.28896E-06	0.000002	0.0000001	7.11043E-07															
715.01	1.31793E-06	0.000002	0.0000001	6.82072E-07															
725.02	1.3444E-06	0.000002	0.0000001	6.55597E-07															
735.02	1.37757E-06	0.000002	0.0000001	6.22426E-07															
745.01	1.3925E-06	0.000002	0.0000001	6.07499E-07															
755.02	1.4188E-06	0.000002	0.0000001	5.81199E-07															
765.02	1.44343E-06	0.000002	0.0000001	5.56574E-07															
775.02	1.46995E-06	0.000002	0.0000001	5.30048E-07															
785.01	1.49705E-06	0.000002	0.0000001	5.02952E-07															
795.02	1.50802E-06	0.000002	0.0000001	4.91978E-07															
805.02	1.53504E-06	0.000002	0.0000001	4.64959E-07															
815.01	1.55226E-06	0.000002	0.0000001	4.47741E-07															
825.02	1.58409E-06	0.000002	0.0000001	4.15906E-07															
835.01	1.59852E-06	0.000002	0.0000001	4.01479E-07															
845.02	1.61323E-06	0.000002	0.0000001	3.86769E-07															
855.01	1.6356E-06	0.000002	0.0000001	3.64398E-07															
865.01	1.64353E-06	0.000002	0.0000001	3.56467E-07															
875.01	1.66875E-06	0.000002	0.0000001	3.31248E-07															
885.01	1.68988E-06	0.000002	0.0000001	3.10122E-07															
895.01	1.69526E-06	0.000002	0.0000001	3.04736E-07															
905.02	1.71663E-06	0.000002	0.0000001	2.83373E-07															
915.02	1.72963E-06	0.000002	0.0000001	2.7037E-07															
925.02	1.73084E-06	0.000002	0.0000001	2.69156E-07															
935.02	1.76235E-06	0.000002	0.0000001	2.37648E-07															
945.02	1.77189E-06	0.000002	0.0000001	2.28113E-07															
955.02	1.76554E-06	0.000002	0.0000001	2.34462E-07															
965	1.79388E-06	0.000002	0.0000001	2.06116E-07															
975.02	1.78911E-06	0.000002	0.0000001	2.10893E-07															
985.01	1.80801E-06	0.000002	0.0000001	1.91991E-07															
995.02	1.81521E-06	0.000002	0.0000001	1.84795E-07															
1005.01	1.81377E-06	0.000002	0.0000001	1.86231E-07															
1015.01	1.83054E-06	0.000002	0.0000001	1.69462E-07															
1025.02	1.83664E-06	0.000002	0.0000001	1.6336E-07															
1035.01	1.83905E-06	0.000002	0.0000001	1.6095E-07															
1045.02	1.8493E-06	0.000002	0.0000001	1.50696E-07															
1055.01	1.85712E-06	0.000002	0.0000001	1.42876E-07															
1065.02	1.85681E-06	0.000002	0.0000001	1.43192E-07															
1075.02	1.87014E-06	0.000002	0.0000001	1.29857E-07															
1085.02	1.86578E-06	0.000002	0.0000001	1.34221E-07															
1095.01	1.86714E-06	0.000002	0.0000001	1.32856E-07															
1105.01	1.87882E-06	0.000002	0.0000001	1.21176E-07															
1115.03	1.88308E-06	0.000002	0.0000001	1.16921E-07															
1125.01	1.88817E-06	0.000002	0.0000001	1.11825E-07															
1135.02	1.89865E-06	0.000002	0.0000001	1.01347E-07															
1145.01	1.88288E-06	0.000002	0.0000001	1.17116E-07															
1155.02	1.89052E-06	0.000002	0.0000001	1.09477E-07															
1165.02	1.88071E-06	0.000002	0.0000001	1.19285E-07															
1175.01	1.89806E-06	0.000002	0.0000001	1.01943E-07															
1185.01	1.89682E-06	0.000002	0.0000001	1.03176E-07															
1195.02	1.89322E-06	0.000002	0.0000001	1.06783E-07															
1205.02	1.89631E-06	0.000002	0.0000001	1.03689E-07															
1215.02	1.89452E-06	0.000002	0.0000001	1.05476E-07															
1225.02	1.88143E-06	0.000002	0.0000001	1.18572E-07															
1235.02	1.88363E-06	0.000002	0.0000001	1.16375E-07															
1245.01	1.89216E-06	0.000002	0.0000001	1.07841E-07															
1255.02	1.88646E-06	0.000002	0.0000001	1.13536E-07															
1265.02	1.89644E-06	0.000002	0.0000001	1.03563E-07															
1275.01	1.89232E-06	0.000002	0.0000001	1.07685E-07															
1285.02	1.89688E-06	0.000002	0.0000001	1.03118E-07															
1295.01	0.0000019	0.000002	0.0000001	1E-07															
1305.02	1.89582E-06	0.000002	0.0000001	1.04184E-07															
1315.01	1.89799E-06	0.000002	0.0000001	1.02013E-07															
1325.02	1.89548E-06	0.000002	0.0000001	1.04516E-07															
1335.01	1.88812E-06	0.000002	0.0000001	1.11882E-07															
1345.01	1.89015E-06	0.000002	0.0000001	1.0985E-07															
1355.02	1.89093E-06	0.000002	0.0000001	1.09067E-07															
1365.02	1.88925E-06	0.000002	0.0000001	1.10752E-07															
1375.01	1.89561E-06	0.000002	0.0000001	1.04394E-07															
1385.01	1.88295E-06	0.000002	0.0000001	1.17049E-07															
1395.02	1.88084E-06	0.000002	0.0000001	1.19165E-07															
1405.01	1.88649E-06	0.000002	0.0000001	1.13513E-07															
1415	1.89517E-06	0.000002	0.0000001	1.04829E-07															
1425.02	1.87915E-06	0.000002	0.0000001	1.20847E-07															
1435.01	1.87334E-06	0.000002	0.0000001	1.26657E-07															
1445.01	1.88514E-06	0.000002	0.0000001	1.1486E-07															
1455.01	1.87381E-06	0.000002	0.0000001	1.2619E-07															
1465.02	1.86837E-06	0.000002	0.0000001	1.31628E-07															
1475.01	1.89031E-06	0.000002	0.0000001	1.0969E-07															
1485.01	1.88202E-06	0.000002	0.0000001	1.17983E-07															
1495.01	1.87178E-06	0.000002	0.0000001	1.28224E-07															
1505.01	1.8819E-06	0.000002	0.0000001	1.18097E-07															
1515.01	1.87746E-06	0.000002	0.0000001	1.22535E-07															
1525.02	1.87525E-06	0.000002	0.0000001	1.24752E-07															
1535.02	1.87051E-06	0.000002	0.0000001	1.29486E-07															
1545.02	1.88069E-06	0.000002	0.0000001	1.1931E-07															
1555.02	1.87471E-06	0.000002	0.0000001	1.25293E-07															
1565.01	1.86847E-06	0.000002	0.0000001	1.31525E-07															
1575	1.86912E-06	0.000002	0.0000001	1.30884E-07															
1585.02	1.86058E-06	0.000002	0.0000001	1.3942E-07															
