Time (s)	40nM	[G-act]	[A208W]	[G-act] (t)
15.04	3.42033E-09	0.000002	0.00000004	1.99658E-06
25.01	3.50249E-10	0.000002	0.00000004	1.99965E-06
35.02	0	0.000002	0.00000004	0.000002
45.01	3.21998E-09	0.000002	0.00000004	1.99678E-06
55.02	6.29295E-09	0.000002	0.00000004	1.99371E-06
65.02	6.96318E-09	0.000002	0.00000004	1.99304E-06
75.02	7.21253E-09	0.000002	0.00000004	1.99279E-06
85.02	7.16641E-09	0.000002	0.00000004	1.99283E-06
95.01	1.19315E-08	0.000002	0.00000004	1.98807E-06
105.01	1.10393E-08	0.000002	0.00000004	1.98896E-06
115.01	1.59889E-08	0.000002	0.00000004	1.98401E-06
125.02	1.95894E-08	0.000002	0.00000004	1.98041E-06
135.03	2.53505E-08	0.000002	0.00000004	1.97465E-06
145.02	2.42781E-08	0.000002	0.00000004	1.97572E-06
155.01	3.26178E-08	0.000002	0.00000004	1.96738E-06
165.02	3.37954E-08	0.000002	0.00000004	1.9662E-06
175.01	3.83011E-08	0.000002	0.00000004	1.9617E-06
185.01	4.59763E-08	0.000002	0.00000004	1.95402E-06
195.02	4.95206E-08	0.000002	0.00000004	1.95048E-06
205	5.71453E-08	0.000002	0.00000004	1.94285E-06
215.02	6.15515E-08	0.000002	0.00000004	1.93845E-06
225.01	6.54201E-08	0.000002	0.00000004	1.93458E-06
235.01	7.56797E-08	0.000002	0.00000004	1.92432E-06
245.01	7.73343E-08	0.000002	0.00000004	1.92267E-06
255.01	8.82094E-08	0.000002	0.00000004	1.91179E-06
265.01	9.34948E-08	0.000002	0.00000004	1.90651E-06
275.01	9.80711E-08	0.000002	0.00000004	1.90193E-06
285.02	1.06924E-07	0.000002	0.00000004	1.89308E-06
295.01	1.15302E-07	0.000002	0.00000004	1.8847E-06
305.02	1.26028E-07	0.000002	0.00000004	1.87397E-06
315.02	1.32114E-07	0.000002	0.00000004	1.86789E-06
325.02	1.40657E-07	0.000002	0.00000004	1.85934E-06
335.02	1.52903E-07	0.000002	0.00000004	1.8471E-06
345.01	1.57296E-07	0.000002	0.00000004	1.8427E-06
355.01	1.70005E-07	0.000002	0.00000004	1.83E-06
365.02	1.78186E-07	0.000002	0.00000004	1.82181E-06
375.02	1.9431E-07	0.000002	0.00000004	1.80569E-06
385.02	1.97663E-07	0.000002	0.00000004	1.80234E-06
395.02	2.13669E-07	0.000002	0.00000004	1.78633E-06
405.01	2.24809E-07	0.000002	0.00000004	1.77519E-06
415.02	2.32725E-07	0.000002	0.00000004	1.76727E-06
425.02	2.43292E-07	0.000002	0.00000004	1.75671E-06
435.02	2.5567E-07	0.000002	0.00000004	1.74433E-06
445.02	2.70066E-07	0.000002	0.00000004	1.72993E-06
455.02	2.80934E-07	0.000002	0.00000004	1.71907E-06
465.02	2.9138E-07	0.000002	0.00000004	1.70862E-06
475.01	3.04203E-07	0.000002	0.00000004	1.6958E-06
485.01	3.25733E-07	0.000002	0.00000004	1.67427E-06
495.02	3.38993E-07	0.000002	0.00000004	1.66101E-06
505.01	3.5012E-07	0.000002	0.00000004	1.64988E-06
515.02	3.62294E-07	0.000002	0.00000004	1.63771E-06
525.01	3.74386E-07	0.000002	0.00000004	1.62561E-06
535.02	3.92538E-07	0.000002	0.00000004	1.60746E-06
545.01	4.06724E-07	0.000002	0.00000004	1.59328E-06
555.02	4.27159E-07	0.000002	0.00000004	1.57284E-06
565.01	4.3556E-07	0.000002	0.00000004	1.56444E-06
575.02	4.61704E-07	0.000002	0.00000004	1.5383E-06
585.01	4.76206E-07	0.000002	0.00000004	1.52379E-06
595.02	4.8109E-07	0.000002	0.00000004	1.51891E-06
605.02	4.996E-07	0.000002	0.00000004	1.5004E-06
615.03	5.22303E-07	0.000002	0.00000004	1.4777E-06
625.02	5.398E-07	0.000002	0.00000004	1.4602E-06
635.01	5.54723E-07	0.000002	0.00000004	1.44528E-06
645.01	5.75895E-07	0.000002	0.00000004	1.4241E-06
655.02	5.79745E-07	0.000002	0.00000004	1.42025E-06
665.02	6.09068E-07	0.000002	0.00000004	1.39093E-06
675.01	6.31669E-07	0.000002	0.00000004	1.36833E-06
685.02	6.55203E-07	0.000002	0.00000004	1.3448E-06
695.01	6.65892E-07	0.000002	0.00000004	1.33411E-06
705.02	6.90288E-07	0.000002	0.00000004	1.30971E-06
715.01	7.05584E-07	0.000002	0.00000004	1.29442E-06
725.02	7.1564E-07	0.000002	0.00000004	1.28436E-06
735.02	7.42977E-07	0.000002	0.00000004	1.25702E-06
745.01	7.62489E-07	0.000002	0.00000004	1.23751E-06
755.02	7.81634E-07	0.000002	0.00000004	1.21837E-06
765.02	8.03103E-07	0.000002	0.00000004	1.1969E-06
775.02	8.23668E-07	0.000002	0.00000004	1.17633E-06
785.01	8.43233E-07	0.000002	0.00000004	1.15677E-06
795.02	8.57308E-07	0.000002	0.00000004	1.14269E-06
805.02	8.89355E-07	0.000002	0.00000004	1.11064E-06
815.01	9.0489E-07	0.000002	0.00000004	1.09511E-06
825.02	9.24546E-07	0.000002	0.00000004	1.07545E-06
835.01	9.37475E-07	0.000002	0.00000004	1.06253E-06
845.02	9.58668E-07	0.000002	0.00000004	1.04133E-06
855.01	9.79448E-07	0.000002	0.00000004	1.02055E-06
865.01	9.98715E-07	0.000002	0.00000004	1.00129E-06
875.01	1.02979E-06	0.000002	0.00000004	9.70214E-07
885.01	1.04218E-06	0.000002	0.00000004	9.5782E-07
895.01	1.06796E-06	0.000002	0.00000004	9.32041E-07
905.02	1.09008E-06	0.000002	0.00000004	9.09918E-07
915.02	1.11011E-06	0.000002	0.00000004	8.89889E-07
925.02	1.12878E-06	0.000002	0.00000004	8.71222E-07
935.02	1.14424E-06	0.000002	0.00000004	8.55763E-07
945.02	1.15463E-06	0.000002	0.00000004	8.45371E-07
955.02	1.18019E-06	0.000002	0.00000004	8.1981E-07
965	1.21245E-06	0.000002	0.00000004	7.87554E-07
975.02	1.21175E-06	0.000002	0.00000004	7.88249E-07
985.01	1.23641E-06	0.000002	0.00000004	7.63587E-07
995.02	1.26881E-06	0.000002	0.00000004	7.3119E-07
1005.01	1.27911E-06	0.000002	0.00000004	7.20886E-07
1015.01	1.2865E-06	0.000002	0.00000004	7.135E-07
1025.02	1.30956E-06	0.000002	0.00000004	6.90442E-07
1035.01	1.3233E-06	0.000002	0.00000004	6.76704E-07
1045.02	1.346E-06	0.000002	0.00000004	6.53998E-07
1055.01	1.36091E-06	0.000002	0.00000004	6.39086E-07
1065.02	1.37855E-06	0.000002	0.00000004	6.21448E-07
1075.02	1.39552E-06	0.000002	0.00000004	6.04484E-07
1085.02	1.40534E-06	0.000002	0.00000004	5.94664E-07
1095.01	1.43319E-06	0.000002	0.00000004	5.66812E-07
1105.01	1.46038E-06	0.000002	0.00000004	5.39616E-07
1115.03	1.46212E-06	0.000002	0.00000004	5.37882E-07
1125.01	1.477E-06	0.000002	0.00000004	5.23001E-07
1135.02	1.49002E-06	0.000002	0.00000004	5.09978E-07
1145.01	1.50254E-06	0.000002	0.00000004	4.97462E-07
1155.02	1.53137E-06	0.000002	0.00000004	4.68629E-07
1165.02	1.52715E-06	0.000002	0.00000004	4.72851E-07
1175.01	1.54447E-06	0.000002	0.00000004	4.55526E-07
1185.01	1.55388E-06	0.000002	0.00000004	4.46116E-07
1195.02	1.57607E-06	0.000002	0.00000004	4.23925E-07
1205.02	1.59265E-06	0.000002	0.00000004	4.07351E-07
1215.02	1.5954E-06	0.000002	0.00000004	4.04604E-07
1225.02	1.61146E-06	0.000002	0.00000004	3.88544E-07
1235.02	1.62369E-06	0.000002	0.00000004	3.7631E-07
1245.01	1.63698E-06	0.000002	0.00000004	3.63024E-07
1255.02	1.65991E-06	0.000002	0.00000004	3.4009E-07
1265.02	1.66363E-06	0.000002	0.00000004	3.36375E-07
1275.01	1.67315E-06	0.000002	0.00000004	3.26852E-07
1285.02	1.67337E-06	0.000002	0.00000004	3.26628E-07
1295.01	1.69636E-06	0.000002	0.00000004	3.03637E-07
1305.02	1.69643E-06	0.000002	0.00000004	3.03574E-07
1315.01	1.71398E-06	0.000002	0.00000004	2.86022E-07
1325.02	1.71669E-06	0.000002	0.00000004	2.8331E-07
1335.01	1.72485E-06	0.000002	0.00000004	2.75155E-07
1345.01	1.73443E-06	0.000002	0.00000004	2.65574E-07
1355.02	1.74985E-06	0.000002	0.00000004	2.50149E-07
1365.02	1.74563E-06	0.000002	0.00000004	2.5437E-07
1375.01	1.76548E-06	0.000002	0.00000004	2.34524E-07
1385.01	1.75995E-06	0.000002	0.00000004	2.40048E-07
1395.02	1.76106E-06	0.000002	0.00000004	2.38945E-07
1405.01	1.77708E-06	0.000002	0.00000004	2.22919E-07
1415	1.7895E-06	0.000002	0.00000004	2.10503E-07
1425.02	1.78868E-06	0.000002	0.00000004	2.11321E-07
1435.01	1.79942E-06	0.000002	0.00000004	2.00578E-07
1445.01	1.80577E-06	0.000002	0.00000004	1.94228E-07
1455.01	1.80479E-06	0.000002	0.00000004	1.95209E-07
1465.02	1.81205E-06	0.000002	0.00000004	1.8795E-07
1475.01	1.82384E-06	0.000002	0.00000004	1.76157E-07
1485.01	1.81683E-06	0.000002	0.00000004	1.83166E-07
1495.01	1.82366E-06	0.000002	0.00000004	1.76344E-07
1505.01	1.82112E-06	0.000002	0.00000004	1.78875E-07
1515.01	1.8465E-06	0.000002	0.00000004	1.53496E-07
1525.02	1.83187E-06	0.000002	0.00000004	1.68133E-07
1535.02	1.84569E-06	0.000002	0.00000004	1.54309E-07
1545.02	1.84766E-06	0.000002	0.00000004	1.52344E-07
1555.02	1.84335E-06	0.000002	0.00000004	1.56645E-07
1565.01	1.84673E-06	0.000002	0.00000004	1.53274E-07
1575	1.84945E-06	0.000002	0.00000004	1.5055E-07
1585.02	1.85059E-06	0.000002	0.00000004	1.4941E-07
1595.02	1.8574E-06	0.000002	0.00000004	1.42604E-07
1605.02	1.85785E-06	0.000002	0.00000004	1.42151E-07
1615.02	1.86642E-06	0.000002	0.00000004	1.33581E-07
1625.02	1.86236E-06	0.000002	0.00000004	1.37635E-07
1635.01	1.86218E-06	0.000002	0.00000004	1.3782E-07
1645.02	1.86586E-06	0.000002	0.00000004	1.34141E-07
1655.01	1.86746E-06	0.000002	0.00000004	1.3254E-07
1665.01	1.88576E-06	0.000002	0.00000004	1.14241E-07
1675.02	1.87776E-06	0.000002	0.00000004	1.22239E-07
1685.02	1.8689E-06	0.000002	0.00000004	1.31096E-07
1695.01	1.87718E-06	0.000002	0.00000004	1.22821E-07
1705.01	1.89303E-06	0.000002	0.00000004	1.06973E-07
1715.01	1.88466E-06	0.000002	0.00000004	1.1534E-07
1725.01	1.88743E-06	0.000002	0.00000004	1.12566E-07
1735.02	1.88972E-06	0.000002	0.00000004	1.10275E-07
1745.01	1.89321E-06	0.000002	0.00000004	1.06789E-07
1755.01	1.89422E-06	0.000002	0.00000004	1.05783E-07
1765.02	1.8925E-06	0.000002	0.00000004	1.07496E-07
1775.02	1.89811E-06	0.000002	0.00000004	1.01888E-07
1785.01	1.88522E-06	0.000002	0.00000004	1.14775E-07
1795.01	1.89054E-06	0.000002	0.00000004	1.09458E-07
1805.02	1.89712E-06	0.000002	0.00000004	1.02883E-07
1815.01	1.88154E-06	0.000002	0.00000004	1.18461E-07
1825.01	1.88009E-06	0.000002	0.00000004	1.19914E-07
1835.01	1.89212E-06	0.000002	0.00000004	1.07877E-07
1845.02	1.88791E-06	0.000002	0.00000004	1.1209E-07
1855.01	1.89388E-06	0.000002	0.00000004	1.0612E-07
1865.02	1.88744E-06	0.000002	0.00000004	1.12557E-07
1875.02	1.89195E-06	0.000002	0.00000004	1.0805E-07
1885.02	1.89591E-06	0.000002	0.00000004	1.04086E-07
1895.02	1.88737E-06	0.000002	0.00000004	1.12633E-07
1905.01	1.88752E-06	0.000002	0.00000004	1.12479E-07
1915.02	1.88494E-06	0.000002	0.00000004	1.15059E-07
1925	1.87441E-06	0.000002	0.00000004	1.25591E-07
1935.02	1.89101E-06	0.000002	0.00000004	1.08991E-07
1945.01	1.88741E-06	0.000002	0.00000004	1.12589E-07
1955.01	1.88349E-06	0.000002	0.00000004	1.16511E-07
1965.01	1.88726E-06	0.000002	0.00000004	1.12736E-07
1975.01	1.88844E-06	0.000002	0.00000004	1.11557E-07
1985.01	1.87821E-06	0.000002	0.00000004	1.2179E-07
1995.02	0.0000019	0.000002	0.00000004	1E-07
2005.01	1.88232E-06	0.000002	0.00000004	1.17683E-07
2015.01	1.88612E-06	0.000002	0.00000004	1.13879E-07
2025.01	1.88789E-06	0.000002	0.00000004	1.12109E-07
2035.02	1.87997E-06	0.000002	0.00000004	1.20029E-07
2045.02	1.87632E-06	0.000002	0.00000004	1.2368E-07
2055.01	1.89109E-06	0.000002	0.00000004	1.08906E-07
2065.01	1.88326E-06	0.000002	0.00000004	1.16744E-07
2075.01	1.87635E-06	0.000002	0.00000004	1.23648E-07
2085.02	1.87928E-06	0.000002	0.00000004	1.20721E-07
2095.02	1.88367E-06	0.000002	0.00000004	1.16332E-07
2105.01	1.8857E-06	0.000002	0.00000004	1.14298E-07
2115.02	1.87244E-06	0.000002	0.00000004	1.27562E-07
2125.01	1.87196E-06	0.000002	0.00000004	1.2804E-07
2135.01	1.86962E-06	0.000002	0.00000004	1.30378E-07
2145.02	1.87684E-06	0.000002	0.00000004	1.23164E-07
2155.01	1.8789E-06	0.000002	0.00000004	1.21096E-07
2165.02	1.87395E-06	0.000002	0.00000004	1.26045E-07
2175.02	1.87267E-06	0.000002	0.00000004	1.27327E-07
