Time (s)	[F-actin] M	[G-act] (0)	[G-act] (t)
15.04	7.86412E-10	0.000002	1.99921E-06
25.01	2.02926E-09	0.000002	1.99797E-06
35.03	1.77239E-09	0.000002	1.99823E-06
45.03	0	0.000002	0.000002
55.02	7.70802E-09	0.000002	1.99229E-06
65.01	1.01581E-08	0.000002	1.98984E-06
75.01	4.09606E-09	0.000002	1.9959E-06
85.02	1.44696E-08	0.000002	1.98553E-06
95.01	1.47699E-08	0.000002	1.98523E-06
105.02	2.23416E-08	0.000002	1.97766E-06
115.02	2.32426E-08	0.000002	1.97676E-06
125.02	2.75224E-08	0.000002	1.97248E-06
135.01	3.00773E-08	0.000002	1.96992E-06
145.02	3.59279E-08	0.000002	1.96407E-06
155.02	3.90914E-08	0.000002	1.96091E-06
165.01	4.39561E-08	0.000002	1.95604E-06
175.03	4.98502E-08	0.000002	1.95015E-06
185.01	5.37388E-08	0.000002	1.94626E-06
195.02	5.85699E-08	0.000002	1.94143E-06
205.02	6.82321E-08	0.000002	1.93177E-06
215.02	6.84376E-08	0.000002	1.93156E-06
225.02	7.3737E-08	0.000002	1.92626E-06
235.01	8.10715E-08	0.000002	1.91893E-06
245.03	8.27333E-08	0.000002	1.91727E-06
255.01	9.02417E-08	0.000002	1.90976E-06
265.01	9.4316E-08	0.000002	1.90568E-06
275.01	1.06185E-07	0.000002	1.89381E-06
285.02	1.09349E-07	0.000002	1.89065E-06
295.01	1.13354E-07	0.000002	1.88665E-06
305.02	1.17136E-07	0.000002	1.88286E-06
315.01	1.22773E-07	0.000002	1.87723E-06
325.01	1.32825E-07	0.000002	1.86718E-06
335.02	1.39635E-07	0.000002	1.86036E-06
345.01	1.457E-07	0.000002	1.8543E-06
355.01	1.49845E-07	0.000002	1.85016E-06
365.02	1.59323E-07	0.000002	1.84068E-06
375.01	1.62044E-07	0.000002	1.83796E-06
385.01	1.74747E-07	0.000002	1.82525E-06
395.02	1.73263E-07	0.000002	1.82674E-06
405.03	1.84054E-07	0.000002	1.81595E-06
415.02	1.88326E-07	0.000002	1.81167E-06
425.02	1.97862E-07	0.000002	1.80214E-06
435.01	2.08446E-07	0.000002	1.79155E-06
445.02	2.13495E-07	0.000002	1.78651E-06
455.02	2.21687E-07	0.000002	1.77831E-06
465.01	2.26362E-07	0.000002	1.77364E-06
475.01	2.32944E-07	0.000002	1.76706E-06
485.02	2.33795E-07	0.000002	1.7662E-06
495.03	2.46765E-07	0.000002	1.75323E-06
505.01	2.5965E-07	0.000002	1.74035E-06
515.01	2.61636E-07	0.000002	1.73836E-06
525.01	2.71654E-07	0.000002	1.72835E-06
535.01	2.80834E-07	0.000002	1.71917E-06
545.01	2.8594E-07	0.000002	1.71406E-06
555.01	2.88732E-07	0.000002	1.71127E-06
565.02	2.99289E-07	0.000002	1.70071E-06
575.01	3.18402E-07	0.000002	1.6816E-06
585.02	3.23322E-07	0.000002	1.67668E-06
595.01	3.29607E-07	0.000002	1.67039E-06
605.02	3.34988E-07	0.000002	1.66501E-06
615.02	3.42919E-07	0.000002	1.65708E-06
625.01	3.46853E-07	0.000002	1.65315E-06
635.01	3.54818E-07	0.000002	1.64518E-06
645.01	3.62899E-07	0.000002	1.6371E-06
655.02	3.67225E-07	0.000002	1.63278E-06
665.02	3.80036E-07	0.000002	1.61996E-06
675.02	3.88774E-07	0.000002	1.61123E-06
685.02	3.91844E-07	0.000002	1.60816E-06
695.02	4.04137E-07	0.000002	1.59586E-06
705.01	4.16059E-07	0.000002	1.58394E-06
715.01	4.25711E-07	0.000002	1.57429E-06
725	4.24947E-07	0.000002	1.57505E-06
735.01	4.40064E-07	0.000002	1.55994E-06
745.02	4.41361E-07	0.000002	1.55864E-06
755.02	4.49614E-07	0.000002	1.55039E-06
765.01	4.60444E-07	0.000002	1.53956E-06
775.02	4.72068E-07	0.000002	1.52793E-06
785.01	4.71177E-07	0.000002	1.52882E-06
795.02	4.80341E-07	0.000002	1.51966E-06
805.01	4.98591E-07	0.000002	1.50141E-06
815.03	4.93191E-07	0.000002	1.50681E-06
825.01	5.06694E-07	0.000002	1.49331E-06
835.03	5.20367E-07	0.000002	1.47963E-06
845.02	5.27716E-07	0.000002	1.47228E-06
855.02	5.23418E-07	0.000002	1.47658E-06
865.01	5.35932E-07	0.000002	1.46407E-06
875.01	5.41E-07	0.000002	1.459E-06
885.02	5.57892E-07	0.000002	1.44211E-06
895.02	5.67005E-07	0.000002	1.433E-06
905.02	5.56556E-07	0.000002	1.44344E-06
915.01	5.78423E-07	0.000002	1.42158E-06
925.01	5.82852E-07	0.000002	1.41715E-06
935.01	5.95557E-07	0.000002	1.40444E-06
945.01	5.94827E-07	0.000002	1.40517E-06
955.01	6.05729E-07	0.000002	1.39427E-06
965.01	6.24272E-07	0.000002	1.37573E-06
975.01	6.22771E-07	0.000002	1.37723E-06
985.02	6.37853E-07	0.000002	1.36215E-06
995.02	6.3678E-07	0.000002	1.36322E-06
1005.02	6.45654E-07	0.000002	1.35435E-06
1015.01	6.57572E-07	0.000002	1.34243E-06
1025.02	6.68614E-07	0.000002	1.33139E-06
1035.02	6.66195E-07	0.000002	1.3338E-06
1045.02	6.79752E-07	0.000002	1.32025E-06
1055.02	6.89082E-07	0.000002	1.31092E-06
1065.02	6.97158E-07	0.000002	1.30284E-06
1075.01	6.98966E-07	0.000002	1.30103E-06
1085.01	7.11902E-07	0.000002	1.2881E-06
1095.01	7.12291E-07	0.000002	1.28771E-06
1105.02	7.16632E-07	0.000002	1.28337E-06
1115.02	7.30778E-07	0.000002	1.26922E-06
1125.01	7.30958E-07	0.000002	1.26904E-06
1135.02	7.45032E-07	0.000002	1.25497E-06
1145.01	7.59134E-07	0.000002	1.24087E-06
1155.02	7.71397E-07	0.000002	1.2286E-06
1165.01	7.58138E-07	0.000002	1.24186E-06
1175.02	7.67293E-07	0.000002	1.23271E-06
1185.01	7.92268E-07	0.000002	1.20773E-06
1195.01	7.83007E-07	0.000002	1.21699E-06
1205.02	7.96321E-07	0.000002	1.20368E-06
1215.02	8.05544E-07	0.000002	1.19446E-06
1225.02	7.99233E-07	0.000002	1.20077E-06
1235.01	8.16805E-07	0.000002	1.1832E-06
1245.02	8.26692E-07	0.000002	1.17331E-06
1255.01	8.28597E-07	0.000002	1.1714E-06
1265.01	8.29907E-07	0.000002	1.17009E-06
1275.01	8.36489E-07	0.000002	1.16351E-06
1285.01	8.49627E-07	0.000002	1.15037E-06
1295.02	8.5295E-07	0.000002	1.14705E-06
1305.01	8.65197E-07	0.000002	1.1348E-06
1315.01	8.73172E-07	0.000002	1.12683E-06
1325.02	8.77582E-07	0.000002	1.12242E-06
1335.01	8.86341E-07	0.000002	1.11366E-06
1345.01	8.91334E-07	0.000002	1.10867E-06
1355.01	8.9822E-07	0.000002	1.10178E-06
1365.01	9.10939E-07	0.000002	1.08906E-06
1375.01	9.19706E-07	0.000002	1.08029E-06
1385.02	9.21518E-07	0.000002	1.07848E-06
1395.02	9.24077E-07	0.000002	1.07592E-06
1405.02	9.29752E-07	0.000002	1.07025E-06
1415.02	9.37825E-07	0.000002	1.06217E-06
1425.01	9.38815E-07	0.000002	1.06118E-06
1435.02	9.63724E-07	0.000002	1.03628E-06
1445.01	9.57454E-07	0.000002	1.04255E-06
1455.02	9.66109E-07	0.000002	1.03389E-06
1465.02	9.75607E-07	0.000002	1.02439E-06
1475.01	9.72386E-07	0.000002	1.02761E-06
1485.02	9.80602E-07	0.000002	1.0194E-06
1495.02	9.87205E-07	0.000002	1.01279E-06
1505.02	9.84765E-07	0.000002	1.01523E-06
1515.02	1.0024E-06	0.000002	9.97604E-07
1525.01	1.00581E-06	0.000002	9.94188E-07
1535.01	1.01464E-06	0.000002	9.85355E-07
1545.02	1.01467E-06	0.000002	9.8533E-07
1555.01	1.03371E-06	0.000002	9.6629E-07
1565.02	1.02774E-06	0.000002	9.72259E-07
1575.02	1.02948E-06	0.000002	9.70516E-07
1585.02	1.05038E-06	0.000002	9.49623E-07
1595.01	1.05028E-06	0.000002	9.49724E-07
1605.01	1.05708E-06	0.000002	9.42925E-07
1615.02	1.06469E-06	0.000002	9.35311E-07
1625.01	1.07116E-06	0.000002	9.2884E-07
1635.03	1.07545E-06	0.000002	9.24547E-07
1645.01	1.08986E-06	0.000002	9.10142E-07
1655.01	1.09068E-06	0.000002	9.09324E-07
1665.01	1.08863E-06	0.000002	9.11369E-07
1675.02	1.10131E-06	0.000002	8.98692E-07
1685.02	1.10479E-06	0.000002	8.95208E-07
1695.02	1.11686E-06	0.000002	8.83137E-07
1705.02	1.11752E-06	0.000002	8.82478E-07
1715.02	1.12023E-06	0.000002	8.79773E-07
1725.02	1.12448E-06	0.000002	8.7552E-07
1735.02	1.13596E-06	0.000002	8.64044E-07
1745.01	1.1211E-06	0.000002	8.78895E-07
1755.01	1.14078E-06	0.000002	8.59219E-07
1765.01	1.14525E-06	0.000002	8.54746E-07
1775.02	1.16401E-06	0.000002	8.35986E-07
1785.02	1.15452E-06	0.000002	8.45483E-07
1795.02	1.16857E-06	0.000002	8.31428E-07
1805.02	1.17316E-06	0.000002	8.2684E-07
1815.01	1.1715E-06	0.000002	8.28502E-07
1825.02	1.18468E-06	0.000002	8.1532E-07
1835.01	1.18082E-06	0.000002	8.19179E-07
1845.01	1.18188E-06	0.000002	8.18116E-07
1855.02	1.20287E-06	0.000002	7.9713E-07
1865.03	1.20411E-06	0.000002	7.95893E-07
1875.01	1.20251E-06	0.000002	7.97494E-07
1885.02	1.20999E-06	0.000002	7.90009E-07
1895.02	1.20992E-06	0.000002	7.90084E-07
1905.01	1.22855E-06	0.000002	7.71453E-07
1915.01	1.22563E-06	0.000002	7.7437E-07
1925.01	1.23459E-06	0.000002	7.65413E-07
1935.02	1.23578E-06	0.000002	7.64221E-07
1945.02	1.24558E-06	0.000002	7.54421E-07
1955.02	1.24188E-06	0.000002	7.58124E-07
1965.01	1.2592E-06	0.000002	7.40803E-07
1975.02	1.25186E-06	0.000002	7.48143E-07
1985.01	1.26005E-06	0.000002	7.39951E-07
1995.01	1.27634E-06	0.000002	7.23664E-07
2005.01	1.26436E-06	0.000002	7.35644E-07
2015.01	1.27411E-06	0.000002	7.25891E-07
2025.03	1.28044E-06	0.000002	7.19564E-07
2035.02	1.27514E-06	0.000002	7.24859E-07
2045.01	1.29251E-06	0.000002	7.07487E-07
2055.02	1.29436E-06	0.000002	7.05644E-07
2065.01	1.29907E-06	0.000002	7.00933E-07
2075.01	1.30994E-06	0.000002	6.9006E-07
2085.01	1.31073E-06	0.000002	6.89273E-07
2095.02	1.3133E-06	0.000002	6.86703E-07
2105.01	1.31438E-06	0.000002	6.85616E-07
2115.01	1.31568E-06	0.000002	6.84324E-07
2125.02	1.32751E-06	0.000002	6.7249E-07
2135.01	1.3286E-06	0.000002	6.71395E-07
2145.01	1.32427E-06	0.000002	6.75732E-07
2155.01	1.33447E-06	0.000002	6.65527E-07
2165.01	1.33875E-06	0.000002	6.61251E-07
2175.02	1.3494E-06	0.000002	6.50599E-07
2185.03	1.34215E-06	0.000002	6.57854E-07
2195.01	1.35584E-06	0.000002	6.44161E-07
2205.01	1.36438E-06	0.000002	6.35615E-07
2215.02	1.36208E-06	0.000002	6.37915E-07
2225.01	1.36297E-06	0.000002	6.37032E-07
2235.01	1.36486E-06	0.000002	6.35143E-07
2245.02	1.37655E-06	0.000002	6.23448E-07
2255.01	1.37597E-06	0.000002	6.24029E-07
2265.01	1.38273E-06	0.000002	6.17269E-07
2275.02	1.39909E-06	0.000002	6.00913E-07
2285.01	1.38955E-06	0.000002	6.10452E-07
2295.03	1.40238E-06	0.000002	5.97625E-07
2305.01	1.40594E-06	0.000002	5.94058E-07
2315.02	1.40068E-06	0.000002	5.99318E-07
2325.02	1.41635E-06	0.000002	5.83655E-07
2335.02	1.41692E-06	0.000002	5.83078E-07
2345.03	1.42115E-06	0.000002	5.78854E-07
2355.01	1.41793E-06	0.000002	5.82066E-07
2365.02	1.43413E-06	0.000002	5.65874E-07
2375.01	1.43096E-06	0.000002	5.69039E-07
2385.01	1.42713E-06	0.000002	5.72868E-07
2395.02	1.44064E-06	0.000002	5.59355E-07
2405.02	1.4379E-06	0.000002	5.62102E-07
2415.02	1.43723E-06	0.000002	5.62768E-07
2425.01	1.45966E-06	0.000002	5.40341E-07
2435.03	1.45503E-06	0.000002	5.44975E-07
2445.01	1.45576E-06	0.000002	5.44242E-07
2455.02	1.45698E-06	0.000002	5.43016E-07
2465.02	1.45622E-06	0.000002	5.43783E-07
2475.02	1.46854E-06	0.000002	5.31455E-07
2485.01	1.46515E-06	0.000002	5.3485E-07
2495.01	1.47531E-06	0.000002	5.24692E-07
2505.03	1.47934E-06	0.000002	5.20661E-07
2515.01	1.48422E-06	0.000002	5.15784E-07
2525.01	1.47856E-06	0.000002	5.21442E-07
2535.02	1.48448E-06	0.000002	5.15516E-07
2545.01	1.49132E-06	0.000002	5.08679E-07
2555.02	1.49952E-06	0.000002	5.00481E-07
2565.01	1.4872E-06	0.000002	5.12801E-07
2575.01	1.50398E-06	0.000002	4.96021E-07
2585.01	1.50676E-06	0.000002	4.93237E-07
2595.03	1.50625E-06	0.000002	4.93753E-07
2605.02	1.51006E-06	0.000002	4.89936E-07
2615.01	1.50736E-06	0.000002	4.92645E-07
2625.02	1.51422E-06	0.000002	4.85782E-07
2635.02	1.51847E-06	0.000002	4.81534E-07
2645.02	1.51978E-06	0.000002	4.80218E-07
2655.01	1.53111E-06	0.000002	4.68894E-07
2665.03	1.5309E-06	0.000002	4.69102E-07
2675.01	1.53891E-06	0.000002	4.61085E-07
2685.02	1.54081E-06	0.000002	4.59187E-07
2695.01	1.53523E-06	0.000002	4.64769E-07
2705.01	1.55145E-06	0.000002	4.48546E-07
2715.01	1.54213E-06	0.000002	4.57875E-07
2725.01	1.55508E-06	0.000002	4.44922E-07
2735.01	1.5545E-06	0.000002	4.45503E-07
2745.02	1.56381E-06	0.000002	4.36185E-07
2755.02	1.55857E-06	0.000002	4.41433E-07
2765.01	1.56832E-06	0.000002	4.31684E-07
2775.02	1.57936E-06	0.000002	4.20644E-07
2785.02	1.58107E-06	0.000002	4.18929E-07
2795.02	1.56555E-06	0.000002	4.34448E-07
2805.02	1.57824E-06	0.000002	4.21761E-07
2815.02	1.56881E-06	0.000002	4.31188E-07
2825.03	1.57908E-06	0.000002	4.20917E-07
2835.01	1.58093E-06	0.000002	4.19074E-07
2845.02	1.59852E-06	0.000002	4.01482E-07
2855.02	1.58974E-06	0.000002	4.10255E-07
2865.01	1.59172E-06	0.000002	4.08277E-07
2875.01	1.58715E-06	0.000002	4.12853E-07
2885.02	1.60695E-06	0.000002	3.93055E-07
2895.02	1.60779E-06	0.000002	3.92209E-07
2905.01	1.6018E-06	0.000002	3.98204E-07
2915.02	1.61701E-06	0.000002	3.82988E-07
2925.02	1.60982E-06	0.000002	3.90178E-07
2935.02	1.60461E-06	0.000002	3.9539E-07
2945.01	1.63097E-06	0.000002	3.69034E-07
2955.02	1.61076E-06	0.000002	3.89243E-07
2965.01	1.62216E-06	0.000002	3.7784E-07
2975.01	1.62833E-06	0.000002	3.7167E-07
2985.01	1.62907E-06	0.000002	3.70929E-07
2995.02	1.63564E-06	0.000002	3.64365E-07
3005.03	1.62892E-06	0.000002	3.71083E-07
3015.02	1.63451E-06	0.000002	3.65491E-07
3025.02	1.631E-06	0.000002	3.69E-07
3035.01	1.62939E-06	0.000002	3.70614E-07
3045.01	1.63747E-06	0.000002	3.62529E-07
3055.01	1.64917E-06	0.000002	3.50828E-07
3065.01	1.65601E-06	0.000002	3.43993E-07
3075.01	1.65651E-06	0.000002	3.43491E-07
3085.01	1.66734E-06	0.000002	3.32657E-07
3095.01	1.65149E-06	0.000002	3.4851E-07
3105.01	1.6693E-06	0.000002	3.30697E-07
3115.01	1.66084E-06	0.000002	3.39158E-07
3125.02	1.66194E-06	0.000002	3.38063E-07
3135.01	1.67109E-06	0.000002	3.28909E-07
3145.02	1.67304E-06	0.000002	3.26961E-07
3155.01	1.67959E-06	0.000002	3.20413E-07
3165.03	1.67809E-06	0.000002	3.21908E-07
3175.01	1.67465E-06	0.000002	3.25348E-07
3185.02	1.68336E-06	0.000002	3.16643E-07
3195.02	1.68562E-06	0.000002	3.14376E-07
3205.01	1.69149E-06	0.000002	3.08514E-07
3215.02	1.6868E-06	0.000002	3.13204E-07
3225.01	1.68763E-06	0.000002	3.12375E-07
3235.03	1.70421E-06	0.000002	2.95793E-07
3245.02	1.69905E-06	0.000002	3.00948E-07
3255.02	1.69187E-06	0.000002	3.08128E-07
3265.02	1.68963E-06	0.000002	3.10369E-07
3275.01	1.70832E-06	0.000002	2.91681E-07
3285.01	1.70792E-06	0.000002	2.92078E-07
3295.01	1.7052E-06	0.000002	2.94801E-07
3305.02	1.70825E-06	0.000002	2.91754E-07
3315.02	1.70497E-06	0.000002	2.95034E-07
3325.02	1.71728E-06	0.000002	2.8272E-07
3335.01	1.71364E-06	0.000002	2.86358E-07
3345.02	1.71208E-06	0.000002	2.87919E-07
3355.01	1.71723E-06	0.000002	2.82774E-07
3365.02	1.71435E-06	0.000002	2.85652E-07
3375.02	1.71255E-06	0.000002	2.87454E-07
3385.02	1.73716E-06	0.000002	2.62839E-07
3395.03	1.72948E-06	0.000002	2.70519E-07
3405.02	1.72083E-06	0.000002	2.79171E-07
3415.02	1.7255E-06	0.000002	2.74498E-07
3425.02	1.74354E-06	0.000002	2.56458E-07
3435.02	1.73146E-06	0.000002	2.68541E-07
3445.02	1.73244E-06	0.000002	2.67555E-07
3455.01	1.73015E-06	0.000002	2.69851E-07
3465.02	1.73654E-06	0.000002	2.63459E-07
3475.02	1.73211E-06	0.000002	2.67885E-07
3485.03	1.74712E-06	0.000002	2.52878E-07
3495.02	1.75403E-06	0.000002	2.45966E-07
3505.03	1.74157E-06	0.000002	2.58432E-07
3515.01	1.74487E-06	0.000002	2.55131E-07
3525.01	1.74779E-06	0.000002	2.52214E-07
3535.02	1.76219E-06	0.000002	2.37808E-07
3545.01	1.75913E-06	0.000002	2.40868E-07
3555.01	1.7581E-06	0.000002	2.419E-07
3565.01	1.74926E-06	0.000002	2.50738E-07
3575.02	1.76998E-06	0.000002	2.30019E-07
3585.01	1.75922E-06	0.000002	2.40783E-07
3595.01	1.7708E-06	0.000002	2.29201E-07
3605.02	1.75541E-06	0.000002	2.44593E-07
3615.02	1.76795E-06	0.000002	2.3205E-07
3625.01	1.77138E-06	0.000002	2.28616E-07
3635.01	1.77252E-06	0.000002	2.27478E-07
3645.02	1.76753E-06	0.000002	2.32467E-07
3655.01	1.78098E-06	0.000002	2.19019E-07
3665.01	1.7825E-06	0.000002	2.17503E-07
3675.01	1.77143E-06	0.000002	2.2857E-07
3685.02	1.77406E-06	0.000002	2.25944E-07
3695.01	1.78009E-06	0.000002	2.19908E-07
3705.01	1.78602E-06	0.000002	2.13978E-07
3715.03	1.79301E-06	0.000002	2.06993E-07
3725.01	1.78361E-06	0.000002	2.16389E-07
3735.03	1.78288E-06	0.000002	2.17118E-07
3745.01	1.79642E-06	0.000002	2.03581E-07
3755.01	1.78368E-06	0.000002	2.16316E-07
3765.01	1.80337E-06	0.000002	1.96634E-07
3775.02	1.80265E-06	0.000002	1.97349E-07
3785.02	1.79637E-06	0.000002	2.03632E-07
3795.01	1.79644E-06	0.000002	2.03557E-07
3805.03	1.80979E-06	0.000002	1.90208E-07
3815.02	1.80212E-06	0.000002	1.97883E-07
3825.01	1.80787E-06	0.000002	1.92131E-07
3835.02	1.81746E-06	0.000002	1.8254E-07
3845.02	1.8129E-06	0.000002	1.87104E-07
3855.02	1.81786E-06	0.000002	1.82137E-07
3865.01	1.81325E-06	0.000002	1.86746E-07
3875	1.82493E-06	0.000002	1.75067E-07
3885.01	1.8392E-06	0.000002	1.60797E-07
3895.01	1.81322E-06	0.000002	1.86782E-07
3905.02	1.82314E-06	0.000002	1.76861E-07
3915.01	1.83119E-06	0.000002	1.68811E-07
3925.02	1.83437E-06	0.000002	1.65634E-07
3935.01	1.83494E-06	0.000002	1.65059E-07
3945.02	1.84097E-06	0.000002	1.5903E-07
3955.01	1.83024E-06	0.000002	1.69757E-07
3965.02	1.81992E-06	0.000002	1.80076E-07
3975.01	1.8327E-06	0.000002	1.67301E-07
3985.01	1.83232E-06	0.000002	1.67677E-07
3995.01	1.82727E-06	0.000002	1.72729E-07
4005.01	1.829E-06	0.000002	1.70998E-07
4015	1.83574E-06	0.000002	1.64259E-07
4025.01	1.8553E-06	0.000002	1.44703E-07
4035.02	1.83902E-06	0.000002	1.60984E-07
4045.02	1.83377E-06	0.000002	1.66229E-07
4055.02	1.84264E-06	0.000002	1.57357E-07
4065.02	1.84487E-06	0.000002	1.55126E-07
4075.02	1.83911E-06	0.000002	1.60888E-07
4085.01	1.84273E-06	0.000002	1.57266E-07
4095.01	1.85109E-06	0.000002	1.48912E-07
4105.01	1.8526E-06	0.000002	1.47402E-07
4115.02	1.85744E-06	0.000002	1.42559E-07
4125.02	1.84664E-06	0.000002	1.53363E-07
4135.01	1.84339E-06	0.000002	1.5661E-07
4145.02	1.83853E-06	0.000002	1.61467E-07
4155.02	1.85437E-06	0.000002	1.45626E-07
4165.01	1.86295E-06	0.000002	1.37048E-07
4175.02	1.85384E-06	0.000002	1.46155E-07
4185.02	1.85832E-06	0.000002	1.41678E-07
4195.01	1.85449E-06	0.000002	1.45513E-07
4205.01	1.85987E-06	0.000002	1.40133E-07
4215.02	1.86422E-06	0.000002	1.35776E-07
4225.01	1.87268E-06	0.000002	1.27317E-07
4235.02	1.87794E-06	0.000002	1.22055E-07
4245.02	1.87868E-06	0.000002	1.21322E-07
4255.02	1.87649E-06	0.000002	1.23513E-07
4265.02	1.86914E-06	0.000002	1.3086E-07
4275.02	1.88111E-06	0.000002	1.18886E-07
4285.02	1.88329E-06	0.000002	1.16712E-07
4295.01	1.8636E-06	0.000002	1.36398E-07
4305.01	1.87428E-06	0.000002	1.25724E-07
4315.02	1.87428E-06	0.000002	1.2572E-07
4325.01	1.87059E-06	0.000002	1.29409E-07
4335.02	1.87778E-06	0.000002	1.22223E-07
4345.01	1.88115E-06	0.000002	1.1885E-07
4355	1.8941E-06	0.000002	1.05902E-07
4365.02	1.89822E-06	0.000002	1.01776E-07
4375.02	1.88344E-06	0.000002	1.16558E-07
4385.02	1.88456E-06	0.000002	1.15436E-07
4395.01	1.89151E-06	0.000002	1.08489E-07
4405.02	1.89298E-06	0.000002	1.0702E-07
4415.01	1.88974E-06	0.000002	1.10261E-07
4425.01	1.88918E-06	0.000002	1.10816E-07
4435.02	1.88749E-06	0.000002	1.12513E-07
4445.03	1.8898E-06	0.000002	1.10196E-07
4455.01	1.89382E-06	0.000002	1.06177E-07
4465.01	1.88876E-06	0.000002	1.11241E-07
4475.02	1.89802E-06	0.000002	1.01976E-07
4485.01	1.88854E-06	0.000002	1.11462E-07
4495.01	1.89891E-06	0.000002	1.01089E-07
4505.01	0.0000019	0.000002	1E-07
