Time (s)	[F-actin] M	[G-act]	[G-act] (t)
15.04	0	0.000005	0.000005
25.01	9.19007E-09	0.000005	4.99081E-06
35.03	2.00976E-08	0.000005	4.9799E-06
45.03	3.58203E-08	0.000005	4.96418E-06
55.02	5.56706E-08	0.000005	4.94433E-06
65.01	7.70604E-08	0.000005	4.92294E-06
75.01	1.09168E-07	0.000005	4.89083E-06
85.02	1.45058E-07	0.000005	4.85494E-06
95.01	1.87914E-07	0.000005	4.81209E-06
105.02	2.35344E-07	0.000005	4.76466E-06
115.02	2.78231E-07	0.000005	4.72177E-06
125.02	3.49712E-07	0.000005	4.65029E-06
135.01	4.13946E-07	0.000005	4.58605E-06
145.02	4.73898E-07	0.000005	4.5261E-06
155.02	5.62649E-07	0.000005	4.43735E-06
165.01	6.37821E-07	0.000005	4.36218E-06
175.03	7.17254E-07	0.000005	4.28275E-06
185.01	8.03708E-07	0.000005	4.19629E-06
195.02	8.91124E-07	0.000005	4.10888E-06
205.02	9.89137E-07	0.000005	4.01086E-06
215.02	1.0696E-06	0.000005	3.9304E-06
225.02	1.15754E-06	0.000005	3.84246E-06
235.01	1.25073E-06	0.000005	3.74927E-06
245.03	1.31816E-06	0.000005	3.68184E-06
255.01	1.41407E-06	0.000005	3.58593E-06
265.01	1.50078E-06	0.000005	3.49922E-06
275.01	1.59171E-06	0.000005	3.40829E-06
285.02	1.67041E-06	0.000005	3.32959E-06
295.01	1.74582E-06	0.000005	3.25418E-06
305.02	1.83482E-06	0.000005	3.16518E-06
315.01	1.91838E-06	0.000005	3.08162E-06
325.01	1.99929E-06	0.000005	3.00071E-06
335.02	2.06993E-06	0.000005	2.93007E-06
345.01	2.15188E-06	0.000005	2.84812E-06
355.01	2.21724E-06	0.000005	2.78276E-06
365.02	2.29316E-06	0.000005	2.70684E-06
375.01	2.34913E-06	0.000005	2.65087E-06
385.01	2.42198E-06	0.000005	2.57802E-06
395.02	2.49568E-06	0.000005	2.50432E-06
405.03	2.55091E-06	0.000005	2.44909E-06
415.02	2.60645E-06	0.000005	2.39355E-06
425.02	2.67815E-06	0.000005	2.32185E-06
435.01	2.73312E-06	0.000005	2.26688E-06
445.02	2.78369E-06	0.000005	2.21631E-06
455.02	2.85165E-06	0.000005	2.14835E-06
465.01	2.90403E-06	0.000005	2.09597E-06
475.01	2.9431E-06	0.000005	2.0569E-06
485.02	3.01274E-06	0.000005	1.98726E-06
495.03	3.06838E-06	0.000005	1.93162E-06
505.01	3.09981E-06	0.000005	1.90019E-06
515.01	3.15443E-06	0.000005	1.84557E-06
525.01	3.1878E-06	0.000005	1.8122E-06
535.01	3.24248E-06	0.000005	1.75752E-06
545.01	3.28176E-06	0.000005	1.71824E-06
555.01	3.31474E-06	0.000005	1.68526E-06
565.02	3.362E-06	0.000005	1.638E-06
575.01	3.40732E-06	0.000005	1.59268E-06
585.02	3.44092E-06	0.000005	1.55908E-06
595.01	3.4774E-06	0.000005	1.5226E-06
605.02	3.53254E-06	0.000005	1.46746E-06
615.02	3.54138E-06	0.000005	1.45862E-06
625.01	3.59446E-06	0.000005	1.40554E-06
635.01	3.60692E-06	0.000005	1.39308E-06
645.01	3.64322E-06	0.000005	1.35678E-06
655.02	3.68637E-06	0.000005	1.31363E-06
665.02	3.71247E-06	0.000005	1.28753E-06
675.02	3.74104E-06	0.000005	1.25896E-06
685.02	3.77034E-06	0.000005	1.22966E-06
695.02	3.79758E-06	0.000005	1.20242E-06
705.01	3.82029E-06	0.000005	1.17971E-06
715.01	3.83783E-06	0.000005	1.16217E-06
725	3.87884E-06	0.000005	1.12116E-06
735.01	3.8897E-06	0.000005	1.1103E-06
745.02	3.93607E-06	0.000005	1.06393E-06
755.02	3.94379E-06	0.000005	1.05621E-06
765.01	3.96638E-06	0.000005	1.03362E-06
775.02	4.02E-06	0.000005	9.80001E-07
785.01	4.02571E-06	0.000005	9.74288E-07
795.02	4.03799E-06	0.000005	9.62012E-07
805.01	4.07854E-06	0.000005	9.21461E-07
815.03	4.08716E-06	0.000005	9.12839E-07
825.01	4.11262E-06	0.000005	8.87375E-07
835.03	4.13903E-06	0.000005	8.6097E-07
845.02	4.12584E-06	0.000005	8.74158E-07
855.02	4.18276E-06	0.000005	8.17237E-07
865.01	4.17988E-06	0.000005	8.20118E-07
875.01	4.20409E-06	0.000005	7.95913E-07
885.02	4.20351E-06	0.000005	7.96493E-07
895.02	4.23178E-06	0.000005	7.68218E-07
905.02	4.25021E-06	0.000005	7.49792E-07
915.01	4.28649E-06	0.000005	7.13506E-07
925.01	4.28509E-06	0.000005	7.14912E-07
935.01	4.30319E-06	0.000005	6.96813E-07
945.01	4.31046E-06	0.000005	6.89545E-07
955.01	4.3341E-06	0.000005	6.65899E-07
965.01	4.34047E-06	0.000005	6.59527E-07
975.01	4.36101E-06	0.000005	6.38993E-07
985.02	4.36774E-06	0.000005	6.32259E-07
995.02	4.37981E-06	0.000005	6.20194E-07
1005.02	4.39199E-06	0.000005	6.0801E-07
1015.01	4.41783E-06	0.000005	5.82174E-07
1025.02	4.4187E-06	0.000005	5.81303E-07
1035.02	4.44377E-06	0.000005	5.56231E-07
1045.02	4.43242E-06	0.000005	5.67577E-07
1055.02	4.45781E-06	0.000005	5.42192E-07
1065.02	4.45156E-06	0.000005	5.4844E-07
1075.01	4.48322E-06	0.000005	5.1678E-07
1085.01	4.48812E-06	0.000005	5.1188E-07
1095.01	4.50021E-06	0.000005	4.99792E-07
1105.02	4.52449E-06	0.000005	4.75509E-07
1115.02	4.50974E-06	0.000005	4.90256E-07
1125.01	4.5186E-06	0.000005	4.81396E-07
1135.02	4.54688E-06	0.000005	4.53123E-07
1145.01	4.55874E-06	0.000005	4.41255E-07
1155.02	4.54597E-06	0.000005	4.54029E-07
1165.01	4.55746E-06	0.000005	4.42543E-07
1175.02	4.55622E-06	0.000005	4.43779E-07
1185.01	4.59119E-06	0.000005	4.08809E-07
1195.01	4.58267E-06	0.000005	4.17334E-07
1205.02	4.58791E-06	0.000005	4.12095E-07
1215.02	4.58312E-06	0.000005	4.16883E-07
1225.02	4.59618E-06	0.000005	4.03825E-07
1235.01	4.60697E-06	0.000005	3.9303E-07
1245.02	4.60795E-06	0.000005	3.92055E-07
1255.01	4.66234E-06	0.000005	3.37661E-07
1265.01	4.64542E-06	0.000005	3.54578E-07
1275.01	4.64526E-06	0.000005	3.54741E-07
1285.01	4.65517E-06	0.000005	3.44829E-07
1295.02	4.65293E-06	0.000005	3.47067E-07
1305.01	4.67417E-06	0.000005	3.25834E-07
1315.01	4.64986E-06	0.000005	3.50139E-07
1325.02	4.66864E-06	0.000005	3.31357E-07
1335.01	4.6802E-06	0.000005	3.19801E-07
1345.01	4.69019E-06	0.000005	3.0981E-07
1355.01	4.69554E-06	0.000005	3.0446E-07
1365.01	4.69524E-06	0.000005	3.04759E-07
1375.01	4.71081E-06	0.000005	2.89187E-07
1385.02	4.72635E-06	0.000005	2.73649E-07
1395.02	4.71868E-06	0.000005	2.81318E-07
1405.02	4.71229E-06	0.000005	2.87711E-07
1415.02	4.71413E-06	0.000005	2.85868E-07
1425.01	4.72577E-06	0.000005	2.7423E-07
1435.02	4.71753E-06	0.000005	2.82472E-07
1445.01	4.75216E-06	0.000005	2.47839E-07
1455.02	4.74488E-06	0.000005	2.55122E-07
1465.02	4.73747E-06	0.000005	2.62528E-07
1475.01	4.7432E-06	0.000005	2.56797E-07
1485.02	4.75272E-06	0.000005	2.47283E-07
1495.02	4.74447E-06	0.000005	2.55533E-07
1505.02	4.76716E-06	0.000005	2.32844E-07
1515.02	4.77917E-06	0.000005	2.20829E-07
1525.01	4.75338E-06	0.000005	2.46616E-07
1535.01	4.7793E-06	0.000005	2.20701E-07
1545.02	4.76874E-06	0.000005	2.31257E-07
1555.01	4.77866E-06	0.000005	2.21341E-07
1565.02	4.80743E-06	0.000005	1.92573E-07
1575.02	4.80734E-06	0.000005	1.92656E-07
1585.02	4.79857E-06	0.000005	2.0143E-07
1595.01	4.80098E-06	0.000005	1.99021E-07
1605.01	4.81671E-06	0.000005	1.8329E-07
1615.02	4.80526E-06	0.000005	1.94738E-07
1625.01	4.79687E-06	0.000005	2.03133E-07
1635.03	4.80537E-06	0.000005	1.94628E-07
1645.01	4.82238E-06	0.000005	1.77616E-07
1655.01	4.83309E-06	0.000005	1.66912E-07
1665.01	4.81843E-06	0.000005	1.81574E-07
1675.02	4.84383E-06	0.000005	1.56174E-07
1685.02	4.83142E-06	0.000005	1.68578E-07
1695.02	4.84145E-06	0.000005	1.58555E-07
1705.02	4.82009E-06	0.000005	1.79906E-07
1715.02	4.84109E-06	0.000005	1.58907E-07
1725.02	4.82621E-06	0.000005	1.73793E-07
1735.02	4.82493E-06	0.000005	1.75072E-07
1745.01	4.83962E-06	0.000005	1.60379E-07
1755.01	4.84094E-06	0.000005	1.59056E-07
1765.01	4.84545E-06	0.000005	1.54548E-07
1775.02	4.82377E-06	0.000005	1.76232E-07
1785.02	4.8511E-06	0.000005	1.48904E-07
1795.02	4.83226E-06	0.000005	1.67738E-07
1805.02	4.84994E-06	0.000005	1.50061E-07
1815.01	4.85283E-06	0.000005	1.4717E-07
1825.02	4.84326E-06	0.000005	1.56738E-07
1835.01	4.8378E-06	0.000005	1.62205E-07
1845.01	4.83449E-06	0.000005	1.65508E-07
1855.02	4.86151E-06	0.000005	1.38488E-07
1865.03	4.83379E-06	0.000005	1.66209E-07
1875.01	4.84157E-06	0.000005	1.58433E-07
1885.02	4.85416E-06	0.000005	1.45844E-07
1895.02	4.85079E-06	0.000005	1.49206E-07
1905.01	4.85963E-06	0.000005	1.40371E-07
1915.01	4.84886E-06	0.000005	1.51138E-07
1925.01	4.85904E-06	0.000005	1.40961E-07
1935.02	4.87603E-06	0.000005	1.23969E-07
1945.02	4.86288E-06	0.000005	1.37124E-07
1955.02	4.86509E-06	0.000005	1.34907E-07
1965.01	4.87941E-06	0.000005	1.2059E-07
1975.02	4.87805E-06	0.000005	1.21952E-07
1985.01	4.86746E-06	0.000005	1.32541E-07
1995.01	4.85617E-06	0.000005	1.43832E-07
2005.01	4.87301E-06	0.000005	1.26993E-07
2015.01	4.89574E-06	0.000005	1.04265E-07
2025.03	4.88661E-06	0.000005	1.13387E-07
2035.02	4.87624E-06	0.000005	1.23756E-07
2045.01	4.86623E-06	0.000005	1.33766E-07
2055.02	4.89458E-06	0.000005	1.05425E-07
2065.01	4.89307E-06	0.000005	1.06926E-07
2075.01	4.88859E-06	0.000005	1.11411E-07
2085.01	4.86789E-06	0.000005	1.32108E-07
2095.02	4.87087E-06	0.000005	1.29125E-07
2105.01	4.89374E-06	0.000005	1.06258E-07
2115.01	4.87462E-06	0.000005	1.25377E-07
2125.02	4.89567E-06	0.000005	1.04329E-07
2135.01	4.87692E-06	0.000005	1.2308E-07
2145.01	4.86863E-06	0.000005	1.31369E-07
2155.01	4.88769E-06	0.000005	1.1231E-07
2165.01	4.88921E-06	0.000005	1.10792E-07
2175.02	0.0000049	0.000005	1E-07
2185.03	4.87932E-06	0.000005	1.2068E-07
2195.01	4.85886E-06	0.000005	1.41135E-07
2205.01	4.88451E-06	0.000005	1.15491E-07
2215.02	4.88374E-06	0.000005	1.16256E-07
2225.01	4.8884E-06	0.000005	1.116E-07
2235.01	4.89719E-06	0.000005	1.02813E-07
2245.02	4.87953E-06	0.000005	1.20467E-07
2255.01	4.87883E-06	0.000005	1.21168E-07
2265.01	4.87169E-06	0.000005	1.28305E-07
2275.02	4.88112E-06	0.000005	1.1888E-07
2285.01	4.89875E-06	0.000005	1.01247E-07
2295.03	4.88931E-06	0.000005	1.10686E-07
2305.01	4.89913E-06	0.000005	1.00865E-07
2315.02	4.8818E-06	0.000005	1.18202E-07
2325.02	4.86523E-06	0.000005	1.34767E-07
2335.02	4.88882E-06	0.000005	1.11175E-07
2345.03	4.87443E-06	0.000005	1.25572E-07
2355.01	4.87855E-06	0.000005	1.21449E-07
2365.02	4.87279E-06	0.000005	1.27208E-07
2375.01	4.89779E-06	0.000005	1.02205E-07
2385.01	4.86845E-06	0.000005	1.31552E-07
2395.02	4.89712E-06	0.000005	1.02881E-07
2405.02	4.89584E-06	0.000005	1.04161E-07
2415.02	4.88717E-06	0.000005	1.12828E-07
2425.01	4.89363E-06	0.000005	1.06367E-07
2435.03	4.86995E-06	0.000005	1.30046E-07
2445.01	4.88537E-06	0.000005	1.14625E-07
2455.02	4.85871E-06	0.000005	1.41293E-07
2465.02	4.87576E-06	0.000005	1.24244E-07
2475.02	4.87265E-06	0.000005	1.2735E-07
2485.01	4.87108E-06	0.000005	1.28922E-07
2495.01	4.8879E-06	0.000005	1.12098E-07
2505.03	4.86373E-06	0.000005	1.36266E-07
2515.01	4.88232E-06	0.000005	1.17684E-07
2525.01	4.88178E-06	0.000005	1.18221E-07
2535.02	4.873E-06	0.000005	1.26999E-07
2545.01	4.89047E-06	0.000005	1.09534E-07
2555.02	4.86018E-06	0.000005	1.39817E-07
2565.01	4.86488E-06	0.000005	1.35122E-07
2575.01	4.87552E-06	0.000005	1.24481E-07
2585.01	4.84875E-06	0.000005	1.5125E-07
2595.03	4.86202E-06	0.000005	1.37976E-07
2605.02	4.8768E-06	0.000005	1.23202E-07
2615.01	4.86271E-06	0.000005	1.37289E-07
2625.02	4.83654E-06	0.000005	1.63462E-07
2635.02	4.87774E-06	0.000005	1.22264E-07
2645.02	4.86418E-06	0.000005	1.35824E-07
2655.01	4.86715E-06	0.000005	1.32846E-07
2665.03	4.86558E-06	0.000005	1.34423E-07
2675.01	4.86279E-06	0.000005	1.37207E-07
2685.02	4.84004E-06	0.000005	1.59961E-07
2695.01	4.85673E-06	0.000005	1.43269E-07
2705.01	4.86326E-06	0.000005	1.36738E-07
2715.01	4.85717E-06	0.000005	1.42834E-07
2725.01	4.85824E-06	0.000005	1.41764E-07
2735.01	4.87344E-06	0.000005	1.26564E-07
2745.02	4.86842E-06	0.000005	1.31583E-07
2755.02	4.86622E-06	0.000005	1.33778E-07
2765.01	4.88021E-06	0.000005	1.19789E-07
2775.02	4.87393E-06	0.000005	1.2607E-07
2785.02	4.86516E-06	0.000005	1.34838E-07
2795.02	4.8737E-06	0.000005	1.26302E-07
2805.02	4.85687E-06	0.000005	1.4313E-07
2815.02	4.87995E-06	0.000005	1.20045E-07
2825.03	4.85621E-06	0.000005	1.43794E-07
2835.01	4.82818E-06	0.000005	1.71815E-07
2845.02	4.85716E-06	0.000005	1.42841E-07
2855.02	4.85815E-06	0.000005	1.41848E-07
