Time (s)	5nM	[G-act]	[F204Y]	[G-act] (t)
15.05	2.03517E-09	0.000002	0.000000005	1.99796E-06
25.02	2.0575E-09	0.000002	0.000000005	1.99794E-06
35.02	2.42671E-09	0.000002	0.000000005	1.99757E-06
45.01	1.12403E-09	0.000002	0.000000005	1.99888E-06
55.02	0	0.000002	0.000000005	0.000002
65.01	2.19298E-09	0.000002	0.000000005	1.99781E-06
75.01	4.07033E-09	0.000002	0.000000005	1.99593E-06
85.02	3.20684E-09	0.000002	0.000000005	1.99679E-06
95.01	4.19539E-09	0.000002	0.000000005	1.9958E-06
105.02	3.10113E-09	0.000002	0.000000005	1.9969E-06
115.02	8.71533E-09	0.000002	0.000000005	1.99128E-06
125.02	8.45182E-09	0.000002	0.000000005	1.99155E-06
135.01	1.32874E-08	0.000002	0.000000005	1.98671E-06
145.01	1.30358E-08	0.000002	0.000000005	1.98696E-06
155.02	1.49384E-08	0.000002	0.000000005	1.98506E-06
165.02	1.36402E-08	0.000002	0.000000005	1.98636E-06
175.01	2.19089E-08	0.000002	0.000000005	1.97809E-06
185.02	2.48165E-08	0.000002	0.000000005	1.97518E-06
195.01	2.51068E-08	0.000002	0.000000005	1.97489E-06
205.01	3.23036E-08	0.000002	0.000000005	1.9677E-06
215.01	3.1781E-08	0.000002	0.000000005	1.96822E-06
225.01	3.72434E-08	0.000002	0.000000005	1.96276E-06
235.01	4.40069E-08	0.000002	0.000000005	1.95599E-06
245.01	4.39935E-08	0.000002	0.000000005	1.95601E-06
255.01	4.78941E-08	0.000002	0.000000005	1.95211E-06
265.01	5.31391E-08	0.000002	0.000000005	1.94686E-06
275.02	5.62923E-08	0.000002	0.000000005	1.94371E-06
285.02	6.29115E-08	0.000002	0.000000005	1.93709E-06
295.01	6.37392E-08	0.000002	0.000000005	1.93626E-06
305.01	7.39791E-08	0.000002	0.000000005	1.92602E-06
315.01	7.65055E-08	0.000002	0.000000005	1.92349E-06
325.02	7.98642E-08	0.000002	0.000000005	1.92014E-06
335.02	8.61201E-08	0.000002	0.000000005	1.91388E-06
345.02	9.49664E-08	0.000002	0.000000005	1.90503E-06
355.01	9.95817E-08	0.000002	0.000000005	1.90042E-06
365.01	1.03447E-07	0.000002	0.000000005	1.89655E-06
375.01	1.09987E-07	0.000002	0.000000005	1.89001E-06
385.02	1.17125E-07	0.000002	0.000000005	1.88287E-06
395.01	1.22183E-07	0.000002	0.000000005	1.87782E-06
405.01	1.28348E-07	0.000002	0.000000005	1.87165E-06
415.01	1.39478E-07	0.000002	0.000000005	1.86052E-06
425.02	1.46319E-07	0.000002	0.000000005	1.85368E-06
435.01	1.46685E-07	0.000002	0.000000005	1.85331E-06
445.02	1.54994E-07	0.000002	0.000000005	1.84501E-06
455.01	1.62383E-07	0.000002	0.000000005	1.83762E-06
465.02	1.75441E-07	0.000002	0.000000005	1.82456E-06
475.01	1.80335E-07	0.000002	0.000000005	1.81967E-06
485.03	1.86071E-07	0.000002	0.000000005	1.81393E-06
495.01	1.96318E-07	0.000002	0.000000005	1.80368E-06
505.02	2.00387E-07	0.000002	0.000000005	1.79961E-06
515.01	2.12629E-07	0.000002	0.000000005	1.78737E-06
525.01	2.19162E-07	0.000002	0.000000005	1.78084E-06
535.02	2.27804E-07	0.000002	0.000000005	1.7722E-06
545.01	2.37276E-07	0.000002	0.000000005	1.76272E-06
555.01	2.43517E-07	0.000002	0.000000005	1.75648E-06
565.01	2.50022E-07	0.000002	0.000000005	1.74998E-06
575.02	2.65585E-07	0.000002	0.000000005	1.73441E-06
585.01	2.68628E-07	0.000002	0.000000005	1.73137E-06
595.02	2.75853E-07	0.000002	0.000000005	1.72415E-06
605.01	2.85048E-07	0.000002	0.000000005	1.71495E-06
615.02	2.93963E-07	0.000002	0.000000005	1.70604E-06
625.01	3.07825E-07	0.000002	0.000000005	1.69217E-06
635.01	3.1017E-07	0.000002	0.000000005	1.68983E-06
645.02	3.2373E-07	0.000002	0.000000005	1.67627E-06
655.02	3.30739E-07	0.000002	0.000000005	1.66926E-06
665.02	3.37933E-07	0.000002	0.000000005	1.66207E-06
675.01	3.54102E-07	0.000002	0.000000005	1.6459E-06
685.01	3.61365E-07	0.000002	0.000000005	1.63864E-06
695.02	3.64028E-07	0.000002	0.000000005	1.63597E-06
705.02	3.77527E-07	0.000002	0.000000005	1.62247E-06
715.01	3.86787E-07	0.000002	0.000000005	1.61321E-06
725.02	3.92878E-07	0.000002	0.000000005	1.60712E-06
735.01	4.09518E-07	0.000002	0.000000005	1.59048E-06
745.02	4.15476E-07	0.000002	0.000000005	1.58452E-06
755.02	4.28196E-07	0.000002	0.000000005	1.5718E-06
765.02	4.34191E-07	0.000002	0.000000005	1.56581E-06
775.01	4.43359E-07	0.000002	0.000000005	1.55664E-06
785.01	4.54524E-07	0.000002	0.000000005	1.54548E-06
795.02	4.68057E-07	0.000002	0.000000005	1.53194E-06
805.01	4.81619E-07	0.000002	0.000000005	1.51838E-06
815.01	4.89144E-07	0.000002	0.000000005	1.51086E-06
825.02	4.97162E-07	0.000002	0.000000005	1.50284E-06
835.01	5.09543E-07	0.000002	0.000000005	1.49046E-06
845.02	5.17717E-07	0.000002	0.000000005	1.48228E-06
855.02	5.27815E-07	0.000002	0.000000005	1.47219E-06
865.01	5.4183E-07	0.000002	0.000000005	1.45817E-06
875.01	5.49512E-07	0.000002	0.000000005	1.45049E-06
885.02	5.63657E-07	0.000002	0.000000005	1.43634E-06
895.01	5.74176E-07	0.000002	0.000000005	1.42582E-06
905.02	5.79528E-07	0.000002	0.000000005	1.42047E-06
915.02	5.84572E-07	0.000002	0.000000005	1.41543E-06
925.01	6.01857E-07	0.000002	0.000000005	1.39814E-06
935.02	6.16746E-07	0.000002	0.000000005	1.38325E-06
945.01	6.27553E-07	0.000002	0.000000005	1.37245E-06
955.01	6.35263E-07	0.000002	0.000000005	1.36474E-06
965.02	6.45522E-07	0.000002	0.000000005	1.35448E-06
975.02	6.50322E-07	0.000002	0.000000005	1.34968E-06
985.02	6.61689E-07	0.000002	0.000000005	1.33831E-06
995.01	6.7675E-07	0.000002	0.000000005	1.32325E-06
1005.02	6.88441E-07	0.000002	0.000000005	1.31156E-06
1015.01	7.01443E-07	0.000002	0.000000005	1.29856E-06
1025.01	7.09533E-07	0.000002	0.000000005	1.29047E-06
1035.01	7.21991E-07	0.000002	0.000000005	1.27801E-06
1045.02	7.29095E-07	0.000002	0.000000005	1.2709E-06
1055.02	7.42259E-07	0.000002	0.000000005	1.25774E-06
1065.02	7.54955E-07	0.000002	0.000000005	1.24504E-06
1075.01	7.65798E-07	0.000002	0.000000005	1.2342E-06
1085.01	7.74555E-07	0.000002	0.000000005	1.22544E-06
1095.01	7.89701E-07	0.000002	0.000000005	1.2103E-06
1105.03	7.93634E-07	0.000002	0.000000005	1.20637E-06
1115.01	8.05004E-07	0.000002	0.000000005	1.195E-06
1125.01	8.18778E-07	0.000002	0.000000005	1.18122E-06
1135.02	8.22268E-07	0.000002	0.000000005	1.17773E-06
1145.02	8.39992E-07	0.000002	0.000000005	1.16001E-06
1155.01	8.56557E-07	0.000002	0.000000005	1.14344E-06
1165.01	8.59536E-07	0.000002	0.000000005	1.14046E-06
1175.02	8.71451E-07	0.000002	0.000000005	1.12855E-06
1185.02	8.86573E-07	0.000002	0.000000005	1.11343E-06
1195.02	8.96266E-07	0.000002	0.000000005	1.10373E-06
1205.01	9.0908E-07	0.000002	0.000000005	1.09092E-06
1215.01	9.10317E-07	0.000002	0.000000005	1.08968E-06
1225.01	9.21145E-07	0.000002	0.000000005	1.07885E-06
1235.02	9.30382E-07	0.000002	0.000000005	1.06962E-06
1245.01	9.41476E-07	0.000002	0.000000005	1.05852E-06
1255.02	9.55981E-07	0.000002	0.000000005	1.04402E-06
1265.01	9.69428E-07	0.000002	0.000000005	1.03057E-06
1275.02	9.842E-07	0.000002	0.000000005	1.0158E-06
1285.01	9.97334E-07	0.000002	0.000000005	1.00267E-06
1295.01	9.96556E-07	0.000002	0.000000005	1.00344E-06
1305.01	1.01054E-06	0.000002	0.000000005	9.89456E-07
1315.01	1.02005E-06	0.000002	0.000000005	9.79954E-07
1325.01	1.02975E-06	0.000002	0.000000005	9.70253E-07
1335.01	1.04033E-06	0.000002	0.000000005	9.5967E-07
1345.01	1.05131E-06	0.000002	0.000000005	9.48688E-07
1355.01	1.05792E-06	0.000002	0.000000005	9.42083E-07
1365.01	1.07239E-06	0.000002	0.000000005	9.27611E-07
1375.01	1.07827E-06	0.000002	0.000000005	9.2173E-07
1385.02	1.07606E-06	0.000002	0.000000005	9.23943E-07
1395.02	1.09762E-06	0.000002	0.000000005	9.02376E-07
1405.02	1.10937E-06	0.000002	0.000000005	8.90627E-07
1415.01	1.11994E-06	0.000002	0.000000005	8.80059E-07
1425.03	1.12657E-06	0.000002	0.000000005	8.73431E-07
1435.02	1.13269E-06	0.000002	0.000000005	8.67311E-07
1445.01	1.14828E-06	0.000002	0.000000005	8.51716E-07
1455.02	1.15237E-06	0.000002	0.000000005	8.47632E-07
1465.02	1.17432E-06	0.000002	0.000000005	8.25679E-07
1475.01	1.17093E-06	0.000002	0.000000005	8.29074E-07
1485.02	1.18154E-06	0.000002	0.000000005	8.18464E-07
1495.02	1.19924E-06	0.000002	0.000000005	8.00756E-07
1505.01	1.18971E-06	0.000002	0.000000005	8.1029E-07
1515.02	1.21169E-06	0.000002	0.000000005	7.88312E-07
1525.01	1.22768E-06	0.000002	0.000000005	7.72324E-07
1535.02	1.23344E-06	0.000002	0.000000005	7.6656E-07
1545.01	1.23734E-06	0.000002	0.000000005	7.62658E-07
1555.01	1.25804E-06	0.000002	0.000000005	7.41961E-07
1565.02	1.26503E-06	0.000002	0.000000005	7.34971E-07
1575.02	1.27182E-06	0.000002	0.000000005	7.28184E-07
1585.01	1.27791E-06	0.000002	0.000000005	7.22089E-07
1595.02	1.28631E-06	0.000002	0.000000005	7.13689E-07
1605.01	1.28741E-06	0.000002	0.000000005	7.12592E-07
1615.02	1.30642E-06	0.000002	0.000000005	6.93585E-07
1625.01	1.30966E-06	0.000002	0.000000005	6.90342E-07
1635.02	1.32046E-06	0.000002	0.000000005	6.79543E-07
1645.02	1.33074E-06	0.000002	0.000000005	6.69255E-07
1655.01	1.32993E-06	0.000002	0.000000005	6.70068E-07
1665.01	1.34559E-06	0.000002	0.000000005	6.54413E-07
1675.03	1.34934E-06	0.000002	0.000000005	6.50659E-07
1685.01	1.35445E-06	0.000002	0.000000005	6.45554E-07
1695.02	1.37399E-06	0.000002	0.000000005	6.26009E-07
1705.02	1.37492E-06	0.000002	0.000000005	6.2508E-07
1715.02	1.3908E-06	0.000002	0.000000005	6.09198E-07
1725.01	1.39773E-06	0.000002	0.000000005	6.02269E-07
1735.01	1.39718E-06	0.000002	0.000000005	6.02823E-07
1745	1.40473E-06	0.000002	0.000000005	5.95272E-07
1755.01	1.41069E-06	0.000002	0.000000005	5.89311E-07
1765.02	1.42418E-06	0.000002	0.000000005	5.75818E-07
1775.02	1.43152E-06	0.000002	0.000000005	5.68482E-07
1785.01	1.44318E-06	0.000002	0.000000005	5.56822E-07
1795.02	1.45032E-06	0.000002	0.000000005	5.49679E-07
1805.01	1.44647E-06	0.000002	0.000000005	5.53526E-07
1815.01	1.4637E-06	0.000002	0.000000005	5.36297E-07
1825.01	1.47449E-06	0.000002	0.000000005	5.25509E-07
1835.01	1.46905E-06	0.000002	0.000000005	5.30947E-07
1845.01	1.48711E-06	0.000002	0.000000005	5.12888E-07
1855.01	1.49199E-06	0.000002	0.000000005	5.08011E-07
1865.02	1.49724E-06	0.000002	0.000000005	5.02756E-07
1875.02	1.50226E-06	0.000002	0.000000005	4.97739E-07
1885.01	1.51389E-06	0.000002	0.000000005	4.8611E-07
1895.01	1.50848E-06	0.000002	0.000000005	4.91515E-07
1905.02	1.52051E-06	0.000002	0.000000005	4.79486E-07
1915.02	1.53066E-06	0.000002	0.000000005	4.69343E-07
1925.01	1.53783E-06	0.000002	0.000000005	4.62166E-07
1935.01	1.55086E-06	0.000002	0.000000005	4.4914E-07
1945.01	1.54655E-06	0.000002	0.000000005	4.53446E-07
1955.01	1.54717E-06	0.000002	0.000000005	4.52829E-07
1965.02	1.55886E-06	0.000002	0.000000005	4.41137E-07
1975.02	1.57488E-06	0.000002	0.000000005	4.25123E-07
1985.01	1.57643E-06	0.000002	0.000000005	4.23572E-07
1995.02	1.57292E-06	0.000002	0.000000005	4.27079E-07
2005.01	1.57894E-06	0.000002	0.000000005	4.21057E-07
2015.01	1.59249E-06	0.000002	0.000000005	4.07508E-07
2025.02	1.59308E-06	0.000002	0.000000005	4.0692E-07
2035.02	1.59505E-06	0.000002	0.000000005	4.04946E-07
2045.01	1.60614E-06	0.000002	0.000000005	3.93862E-07
2055.01	1.61238E-06	0.000002	0.000000005	3.87618E-07
2065.02	1.61661E-06	0.000002	0.000000005	3.83391E-07
2075.01	1.62745E-06	0.000002	0.000000005	3.72551E-07
2085.01	1.63741E-06	0.000002	0.000000005	3.62585E-07
2095.02	1.64129E-06	0.000002	0.000000005	3.5871E-07
2105.01	1.63095E-06	0.000002	0.000000005	3.69053E-07
2115.02	1.64172E-06	0.000002	0.000000005	3.58277E-07
2125.02	1.65162E-06	0.000002	0.000000005	3.48378E-07
2135.02	1.65649E-06	0.000002	0.000000005	3.43505E-07
2145.02	1.66402E-06	0.000002	0.000000005	3.35981E-07
2155.01	1.66143E-06	0.000002	0.000000005	3.38565E-07
2165.02	1.67084E-06	0.000002	0.000000005	3.29156E-07
2175.01	1.67057E-06	0.000002	0.000000005	3.29435E-07
2185.01	1.67156E-06	0.000002	0.000000005	3.28445E-07
2195.01	1.68659E-06	0.000002	0.000000005	3.13408E-07
2205.02	1.67931E-06	0.000002	0.000000005	3.20693E-07
2215.02	1.68942E-06	0.000002	0.000000005	3.10578E-07
2225.02	1.69283E-06	0.000002	0.000000005	3.07168E-07
2235.01	1.70059E-06	0.000002	0.000000005	2.99406E-07
2245.02	1.7078E-06	0.000002	0.000000005	2.92197E-07
2255.01	1.71026E-06	0.000002	0.000000005	2.89738E-07
2265.02	1.72135E-06	0.000002	0.000000005	2.78649E-07
2275.02	1.70686E-06	0.000002	0.000000005	2.93144E-07
2285.01	1.71688E-06	0.000002	0.000000005	2.83117E-07
2295.01	1.71944E-06	0.000002	0.000000005	2.80557E-07
2305.01	1.72824E-06	0.000002	0.000000005	2.71762E-07
2315.02	1.72554E-06	0.000002	0.000000005	2.7446E-07
2325.01	1.74011E-06	0.000002	0.000000005	2.59886E-07
2335.01	1.74234E-06	0.000002	0.000000005	2.57661E-07
2345.01	1.75291E-06	0.000002	0.000000005	2.47089E-07
2355.02	1.75258E-06	0.000002	0.000000005	2.47418E-07
2365.01	1.74589E-06	0.000002	0.000000005	2.54108E-07
2375.01	1.74977E-06	0.000002	0.000000005	2.50229E-07
2385.02	1.76777E-06	0.000002	0.000000005	2.32232E-07
2395.01	1.75434E-06	0.000002	0.000000005	2.45661E-07
2405.02	1.76308E-06	0.000002	0.000000005	2.36922E-07
2415.02	1.76763E-06	0.000002	0.000000005	2.32371E-07
2425.02	1.76866E-06	0.000002	0.000000005	2.31337E-07
2435.01	1.76447E-06	0.000002	0.000000005	2.35533E-07
2445.01	1.77594E-06	0.000002	0.000000005	2.24056E-07
2455.01	1.78196E-06	0.000002	0.000000005	2.18041E-07
2465.01	1.76971E-06	0.000002	0.000000005	2.30291E-07
2475.02	1.7855E-06	0.000002	0.000000005	2.14498E-07
2485.02	1.79433E-06	0.000002	0.000000005	2.05669E-07
2495.01	1.79363E-06	0.000002	0.000000005	2.06373E-07
2505.01	1.79317E-06	0.000002	0.000000005	2.06834E-07
2515.01	1.79187E-06	0.000002	0.000000005	2.0813E-07
2525.01	1.78762E-06	0.000002	0.000000005	2.12376E-07
2535.01	1.78798E-06	0.000002	0.000000005	2.1202E-07
2545.02	1.79075E-06	0.000002	0.000000005	2.09253E-07
2555.02	1.80833E-06	0.000002	0.000000005	1.91673E-07
2565.01	1.81791E-06	0.000002	0.000000005	1.82087E-07
2575.02	1.80014E-06	0.000002	0.000000005	1.99859E-07
2585.01	1.80553E-06	0.000002	0.000000005	1.94466E-07
2595.01	1.82705E-06	0.000002	0.000000005	1.72949E-07
2605.02	1.81727E-06	0.000002	0.000000005	1.82727E-07
2615.01	1.80853E-06	0.000002	0.000000005	1.91466E-07
2625.01	1.81888E-06	0.000002	0.000000005	1.81116E-07
2635.01	1.81642E-06	0.000002	0.000000005	1.8358E-07
2645.02	1.83222E-06	0.000002	0.000000005	1.67781E-07
2655.02	1.82476E-06	0.000002	0.000000005	1.75245E-07
2665.02	1.83503E-06	0.000002	0.000000005	1.64975E-07
2675.02	1.83664E-06	0.000002	0.000000005	1.63358E-07
2685	1.83074E-06	0.000002	0.000000005	1.69261E-07
2695.02	1.82458E-06	0.000002	0.000000005	1.75419E-07
2705.02	1.83374E-06	0.000002	0.000000005	1.6626E-07
2715.02	1.84634E-06	0.000002	0.000000005	1.53656E-07
2725.01	1.84739E-06	0.000002	0.000000005	1.52611E-07
2735.01	1.83805E-06	0.000002	0.000000005	1.61947E-07
2745.01	1.84745E-06	0.000002	0.000000005	1.52548E-07
2755.01	1.8469E-06	0.000002	0.000000005	1.53103E-07
2765.01	1.85004E-06	0.000002	0.000000005	1.49959E-07
2775.01	1.84712E-06	0.000002	0.000000005	1.5288E-07
2785.02	1.85402E-06	0.000002	0.000000005	1.45978E-07
2795.01	1.85527E-06	0.000002	0.000000005	1.44729E-07
2805.01	1.85856E-06	0.000002	0.000000005	1.41443E-07
2815.02	1.86562E-06	0.000002	0.000000005	1.34377E-07
2825.02	1.84899E-06	0.000002	0.000000005	1.51009E-07
2835.01	1.85458E-06	0.000002	0.000000005	1.45417E-07
2845.02	1.86083E-06	0.000002	0.000000005	1.39167E-07
2855.02	1.85499E-06	0.000002	0.000000005	1.45012E-07
2865.02	1.85662E-06	0.000002	0.000000005	1.43385E-07
2875.02	1.86186E-06	0.000002	0.000000005	1.38141E-07
2885	1.86074E-06	0.000002	0.000000005	1.39258E-07
2895.02	1.85939E-06	0.000002	0.000000005	1.40608E-07
2905.02	1.86864E-06	0.000002	0.000000005	1.3136E-07
2915.02	1.8628E-06	0.000002	0.000000005	1.372E-07
2925.01	1.86099E-06	0.000002	0.000000005	1.39012E-07
2935.01	1.86727E-06	0.000002	0.000000005	1.32729E-07
2945.02	1.86696E-06	0.000002	0.000000005	1.33038E-07
2955	1.86903E-06	0.000002	0.000000005	1.3097E-07
2965.01	1.86509E-06	0.000002	0.000000005	1.3491E-07
2975.01	1.87022E-06	0.000002	0.000000005	1.29779E-07
2985.01	1.86362E-06	0.000002	0.000000005	1.36375E-07
2995.01	1.868E-06	0.000002	0.000000005	1.31998E-07
3005	1.88146E-06	0.000002	0.000000005	1.18541E-07
3015.02	1.8736E-06	0.000002	0.000000005	1.26401E-07
3025.01	1.88505E-06	0.000002	0.000000005	1.14953E-07
3035.01	1.87115E-06	0.000002	0.000000005	1.28854E-07
3045.01	1.86779E-06	0.000002	0.000000005	1.3221E-07
3055.02	1.88967E-06	0.000002	0.000000005	1.10326E-07
3065.02	1.87034E-06	0.000002	0.000000005	1.2966E-07
3075.02	1.88053E-06	0.000002	0.000000005	1.19466E-07
3085.01	1.88975E-06	0.000002	0.000000005	1.1025E-07
3095.02	1.87893E-06	0.000002	0.000000005	1.21074E-07
3105.02	1.88335E-06	0.000002	0.000000005	1.16648E-07
3115.02	1.88613E-06	0.000002	0.000000005	1.13867E-07
3125.01	1.88711E-06	0.000002	0.000000005	1.12894E-07
3135.01	1.88237E-06	0.000002	0.000000005	1.17627E-07
3145.02	1.87487E-06	0.000002	0.000000005	1.25126E-07
3155.02	1.87509E-06	0.000002	0.000000005	1.24913E-07
3165.01	1.88824E-06	0.000002	0.000000005	1.1176E-07
3175.01	1.88092E-06	0.000002	0.000000005	1.1908E-07
3185.02	1.8815E-06	0.000002	0.000000005	1.185E-07
3195.02	1.88459E-06	0.000002	0.000000005	1.1541E-07
3205.01	1.87247E-06	0.000002	0.000000005	1.27532E-07
3215.02	1.88967E-06	0.000002	0.000000005	1.10326E-07
3225.02	1.87621E-06	0.000002	0.000000005	1.23789E-07
3235.02	1.89788E-06	0.000002	0.000000005	1.02116E-07
3245.01	1.89264E-06	0.000002	0.000000005	1.07362E-07
3255.01	1.88942E-06	0.000002	0.000000005	1.10579E-07
3265.01	1.88385E-06	0.000002	0.000000005	1.16146E-07
3275.02	1.88175E-06	0.000002	0.000000005	1.18252E-07
3285.02	1.88581E-06	0.000002	0.000000005	1.14185E-07
3295.02	1.88949E-06	0.000002	0.000000005	1.10511E-07
3305.01	1.89402E-06	0.000002	0.000000005	1.05976E-07
3315.02	1.88516E-06	0.000002	0.000000005	1.14843E-07
3325.01	1.8796E-06	0.000002	0.000000005	1.20399E-07
3335.02	1.87996E-06	0.000002	0.000000005	1.2004E-07
3345.01	1.89403E-06	0.000002	0.000000005	1.05973E-07
3355.01	1.887E-06	0.000002	0.000000005	1.13005E-07
3365.01	1.89263E-06	0.000002	0.000000005	1.07374E-07
3375.01	1.88701E-06	0.000002	0.000000005	1.12993E-07
3385.02	1.88437E-06	0.000002	0.000000005	1.15632E-07
3395.02	1.87936E-06	0.000002	0.000000005	1.20645E-07
3405.01	1.88852E-06	0.000002	0.000000005	1.11483E-07
3415.02	1.87819E-06	0.000002	0.000000005	1.21806E-07
3425.02	1.88582E-06	0.000002	0.000000005	1.14181E-07
3435.02	1.87785E-06	0.000002	0.000000005	1.22152E-07
3445.02	1.88954E-06	0.000002	0.000000005	1.10463E-07
3455.02	1.88918E-06	0.000002	0.000000005	1.1082E-07
3465.02	1.88867E-06	0.000002	0.000000005	1.11325E-07
3475.02	0.0000019	0.000002	0.000000005	1E-07
3485.02	1.89131E-06	0.000002	0.000000005	1.08686E-07
3495.01	1.88902E-06	0.000002	0.000000005	1.10983E-07
3505.01	1.89598E-06	0.000002	0.000000005	1.04024E-07
3515.02	1.8842E-06	0.000002	0.000000005	1.15796E-07
3525.02	1.87636E-06	0.000002	0.000000005	1.23639E-07
3535.02	1.88195E-06	0.000002	0.000000005	1.18051E-07
3545.01	1.88662E-06	0.000002	0.000000005	1.1338E-07
3555	1.8918E-06	0.000002	0.000000005	1.08196E-07
3565.01	1.87721E-06	0.000002	0.000000005	1.22789E-07
3575.02	1.88579E-06	0.000002	0.000000005	1.14206E-07
3585.01	1.88923E-06	0.000002	0.000000005	1.10771E-07
3595.02	1.89021E-06	0.000002	0.000000005	1.09787E-07
3605.02	1.87977E-06	0.000002	0.000000005	1.20228E-07
3615.01	1.87245E-06	0.000002	0.000000005	1.27545E-07
3625.02	1.87945E-06	0.000002	0.000000005	1.20551E-07
3635.02	1.88361E-06	0.000002	0.000000005	1.16389E-07
3645.01	1.87594E-06	0.000002	0.000000005	1.2406E-07
3655.02	1.88288E-06	0.000002	0.000000005	1.17115E-07
3665.01	1.88725E-06	0.000002	0.000000005	1.12754E-07
3675.02	1.88695E-06	0.000002	0.000000005	1.13052E-07
3685.01	1.88802E-06	0.000002	0.000000005	1.1198E-07
3695.01	1.8898E-06	0.000002	0.000000005	1.10197E-07
3705.02	1.89863E-06	0.000002	0.000000005	1.01368E-07
3715	1.89021E-06	0.000002	0.000000005	1.09786E-07
3725.02	1.87373E-06	0.000002	0.000000005	1.26274E-07
3735.01	1.88243E-06	0.000002	0.000000005	1.17569E-07
3745.01	1.87949E-06	0.000002	0.000000005	1.20511E-07
3755.02	1.87772E-06	0.000002	0.000000005	1.2228E-07
3765.02	1.88631E-06	0.000002	0.000000005	1.13691E-07
3775.01	1.8733E-06	0.000002	0.000000005	1.26701E-07
3785.01	1.87284E-06	0.000002	0.000000005	1.27163E-07
3795.02	1.88227E-06	0.000002	0.000000005	1.17727E-07
3805.02	1.87641E-06	0.000002	0.000000005	1.23594E-07
3815.01	1.87913E-06	0.000002	0.000000005	1.20867E-07
3825.01	1.87165E-06	0.000002	0.000000005	1.28348E-07
3835.02	1.88415E-06	0.000002	0.000000005	1.15847E-07
3845.02	1.88569E-06	0.000002	0.000000005	1.14312E-07
3855.01	1.87801E-06	0.000002	0.000000005	1.21992E-07
3865.02	1.86841E-06	0.000002	0.000000005	1.31595E-07
3875.01	1.88123E-06	0.000002	0.000000005	1.18768E-07
3885.02	1.87526E-06	0.000002	0.000000005	1.24738E-07
3895.02	1.87667E-06	0.000002	0.000000005	1.23329E-07
3905.02	1.86957E-06	0.000002	0.000000005	1.30428E-07
3915.01	1.8856E-06	0.000002	0.000000005	1.14402E-07
3925.01	1.87877E-06	0.000002	0.000000005	1.2123E-07
3935.01	1.87321E-06	0.000002	0.000000005	1.26794E-07
3945.01	1.87282E-06	0.000002	0.000000005	1.27178E-07
